Latest: Time (s),Latest: Z-Axis Acceleration (m/sÂ²),Latest: Potential (mV)
0,-56.75072316,10.17246142
0.0002,-53.10612181,10.92597708
0.0004,-47.98292774,11.30273491
0.0006,-41.93020901,11.67949274
0.0008,-37.76896488,11.67949274
0.001,-34.19137577,12.05625057
0.0012,-32.78195698,12.78621887
0.0014,-32.67819609,12.78621887
0.0016,-30.85589541,12.78621887
0.0018,-30.89048238,13.1629767
0.002,-35.77372938,12.78621887
0.0022,-39.66043948,12.78621887
0.0024,-42.92674591,12.78621887
0.0026,-46.57134726,12.78621887
0.0028,-48.49740883,12.40946104
0.003,-47.2263379,12.05625057
0.0032,-45.02358061,12.05625057
0.0034,-42.68679885,11.30273491
0.0036,-37.56144309,11.30273491
0.0038,-32.81654395,10.54921925
0.004,-29.9631194,10.17246142
0.0042,-26.04182234,9.79570359
0.0044,-20.67651952,9.41894576
0.0046,-16.44826315,8.665430099
0.0048,-10.25719656,8.288672268
0.005,-0.903584439,7.935461802
0.0052,7.967971872,7.181946142
0.0054,16.11752531,6.805188311
0.0056,24.4054266,6.428430481
0.0058,31.24932213,5.67491482
0.006,36.68163719,5.67491482
0.0062,41.05040311,5.29815699
0.0064,44.5566566,4.167883499
0.0066,45.03871241,4.167883499
0.0068,44.00758854,3.814673033
0.007,44.24753561,3.437915202
0.0072,44.24753561,3.061157372
0.0074,45.82988922,2.684399541
0.0076,48.68331376,2.307641711
0.0078,50.16190648,2.307641711
0.008,51.6404992,2.307641711
0.0082,53.39578763,1.930883881
0.0084,54.28856364,1.930883881
0.0086,54.4269115,1.17736822
0.0088,54.32315061,1.17736822
0.009,55.70014412,1.17736822
0.0092,55.3218492,1.17736822
0.0094,55.25267527,0.80061039
0.0096,56.49132092,0.80061039
0.0098,57.45327087,0.80061039
0.01,57.96991364,0.80061039
0.0102,57.96991364,0.80061039
0.0104,57.96991364,0.80061039
0.0106,57.96991364,0.80061039
0.0108,52.98290575,0.80061039
0.011,46.82642612,0.80061039
0.0112,38.0586307,0.80061039
0.0114,23.71801068,0.80061039
0.0116,14.50274642,0.80061039
0.0118,9.721098618,0.80061039
0.012,3.635954609,0.80061039
0.0122,0.814955343,0.80061039
0.0124,4.667078478,0.80061039
0.0126,14.81186741,0.80061039
0.0128,23.61424979,1.17736822
0.013,30.69809239,1.17736822
0.0132,36.54545102,1.55412605
0.0134,41.22117624,1.55412605
0.0136,45.00412545,1.55412605
0.0138,48.06507178,1.930883881
0.014,50.64396229,1.930883881
0.0142,52.63919779,2.307641711
0.0144,54.35773757,2.307641711
0.0146,55.70014412,2.307641711
0.0148,56.83502888,2.684399541
0.015,56.07843904,2.684399541
0.0152,52.36466376,3.061157372
0.0154,46.86101309,3.061157372
0.0156,37.37121479,3.814673033
0.0158,24.71454759,3.814673033
0.016,10.95974427,4.167883499
0.0162,-1.111106224,4.167883499
0.0164,-13.24896896,4.167883499
0.0166,-24.52864266,4.544641329
0.0168,-30.85589541,4.544641329
0.017,-34.08977657,4.544641329
0.0172,-35.60295625,4.544641329
0.0174,-34.98255258,4.921399159
0.0176,-31.13259113,4.921399159
0.0178,-25.49275428,4.921399159
0.018,-18.61427178,5.29815699
0.0182,-11.66877704,4.921399159
0.0184,-5.821418408,4.921399159
0.0186,0.780368379,5.29815699
0.0188,6.936848002,4.921399159
0.019,10.68521024,5.29815699
0.0192,12.19838993,4.921399159
0.0194,13.33327469,4.921399159
0.0196,11.51097401,4.921399159
0.0198,6.694739253,4.544641329
0.02,1.949840105,4.544641329
0.0202,-1.454814181,4.167883499
0.0204,-6.372648149,4.167883499
0.0206,-14.24766755,3.814673033
0.0208,-20.95321523,3.814673033
0.021,-25.49275428,3.814673033
0.0212,-29.34271573,3.061157372
0.0214,-33.43478593,3.061157372
0.0216,-38.52555472,2.684399541
0.0218,-42.68679885,2.307641711
0.022,-44.16539157,2.307641711
0.0222,-44.54368649,2.307641711
0.0224,-46.57134726,1.55412605
0.0226,-47.77540595,1.17736822
0.0228,-46.81345601,1.17736822
0.023,-46.1260401,0.80061039
0.0232,-46.19305234,0.423852559
0.0234,-45.4364625,0.047094729
0.0236,-44.64528569,0.047094729
0.0238,-44.09621764,-0.306115737
0.024,-42.54845099,-0.306115737
0.0242,-39.93497351,-0.306115737
0.0244,-37.32149603,-0.306115737
0.0246,-35.29167357,-0.306115737
0.0248,-33.12566494,-0.306115737
0.025,-32.81654395,-0.306115737
0.0252,-32.64577081,-0.306115737
0.0254,-32.09454107,-0.306115737
0.0256,-32.64577081,-0.306115737
0.0258,-33.4693729,-0.306115737
0.026,-33.09107797,-0.306115737
0.0262,-32.40366206,-0.306115737
0.0264,-32.40366206,-0.306115737
0.0266,-32.33448813,-0.306115737
0.0268,-32.57659688,-0.306115737
0.027,-32.92030484,-0.306115737
0.0272,-31.61248526,-0.306115737
0.0274,-28.82823464,-0.306115737
0.0276,-26.1801702,-0.306115737
0.0278,-24.49405569,-0.306115737
0.028,-23.18839779,-0.306115737
0.0282,-22.91386377,-0.306115737
0.0284,-23.35917093,-0.306115737
0.0286,-23.39375789,-0.306115737
0.0288,-23.18839779,-0.306115737
0.029,-23.32458397,-0.306115737
0.0292,-23.01546297,-0.306115737
0.0294,-21.22774926,-0.306115737
0.0296,-20.26579932,-0.306115737
0.0298,-20.60950728,-0.306115737
0.03,-20.9878022,-0.306115737
0.0302,-21.9843391,-0.306115737
0.0304,-23.60127968,-0.306115737
0.0306,-23.05004994,-0.306115737
0.0308,-21.02238916,-0.306115737
0.031,-19.26710073,-0.306115737
0.0312,-17.41021309,-0.306115737
0.0314,-14.93508347,-0.306115737
0.0316,-13.28355593,-0.306115737
0.0318,-11.87413714,-0.306115737
0.032,-10.77383934,-0.306115737
0.0322,-10.2226096,-0.306115737
0.0324,-9.295246622,-0.306115737
0.0326,-7.33459809,-0.306115737
0.0328,-5.134002495,-0.306115737
0.033,-3.104180035,-0.306115737
0.0332,-2.107643129,-0.306115737
0.0334,-1.934708309,-0.306115737
0.0336,-2.898819935,-0.306115737
0.0338,-3.482474955,-0.306115737
0.034,-3.069593071,-0.306115737
0.0342,-2.382177158,-0.306115737
0.0344,-2.073056165,-0.306115737
0.0346,-1.07651926,-0.306115737
0.0348,0.12753943,-0.306115737
0.035,0.196713359,-0.306115737
0.0352,-0.04539539,-0.306115737
0.0354,-0.216168526,-0.306115737
0.0356,-1.07651926,-0.306115737
0.0358,-0.767398268,-0.306115737
0.036,1.536958221,-0.306115737
0.0362,4.185022665,-0.306115737
0.0364,6.284019054,-0.306115737
0.0366,8.0371458,-0.306115737
0.0368,8.897496534,-0.306115737
0.037,8.793735642,-0.306115737
0.0372,8.897496534,-0.306115737
0.0374,9.686511654,-0.306115737
0.0376,10.54686239,-0.306115737
0.0378,11.64716019,-0.306115737
0.038,13.29868773,-0.306115737
0.0382,15.39552243,-0.306115737
0.0384,16.56499415,-0.306115737
0.0386,16.73792898,-0.306115737
0.0388,16.2212862,-0.306115737
0.039,15.67221814,-0.306115737
0.0392,15.60304421,-0.306115737
0.0394,16.63416808,-0.306115737
0.0396,17.93982598,-0.306115737
0.0398,19.07471074,-0.306115737
0.04,19.59135352,-0.306115737
0.0402,19.24764556,-0.306115737
0.0404,18.49105572,-0.306115737
0.0406,18.07817384,-0.306115737
0.0408,17.35617096,-0.306115737
0.041,16.83952818,-0.306115737
0.0412,17.76905285,-0.306115737
0.0414,19.62594048,-0.306115737
0.0416,20.79541221,-0.306115737
0.0418,21.68818822,-0.306115737
0.042,22.10107011,-0.306115737
0.0422,21.24288106,-0.306115737
0.0424,20.07340933,-0.306115737
0.0426,20.14258326,-0.306115737
0.0428,20.93159838,-0.306115737
0.043,22.10107011,-0.306115737
0.0432,23.20136791,-0.306115737
0.0434,24.44001356,-0.306115737
0.0436,24.85289545,-0.306115737
0.0438,24.44001356,-0.306115737
0.044,23.61424979,-0.306115737
0.0442,22.65229985,-0.306115737
0.0444,21.62117598,-0.306115737
0.0446,21.27746802,-0.306115737
0.0448,21.68818822,-0.306115737
0.045,22.06648314,-0.306115737
0.0452,21.93029697,-0.306115737
0.0454,21.24288106,-0.306115737
0.0456,19.45300566,-0.306115737
0.0458,17.69987892,-0.306115737
0.046,16.70334201,-0.306115737
0.0462,16.15211227,-0.306115737
0.0464,15.98133913,-0.306115737
0.0466,16.11752531,-0.306115737
0.0468,15.87757824,-0.306115737
0.047,15.49928332,-0.306115737
0.0472,15.1209884,-0.306115737
0.0474,13.74615657,-0.306115737
0.0476,12.02545511,-0.306115737
0.0478,11.06350517,-0.306115737
0.048,10.37608925,-0.306115737
0.0482,10.0323813,-0.306115737
0.0484,10.09939354,-0.306115737
0.0486,10.16856747,-0.306115737
0.0488,9.033682705,-0.306115737
0.049,7.418903816,-0.306115737
0.0492,6.214845125,-0.306115737
0.0494,5.663615384,-0.306115737
0.0496,5.010786435,-0.306115737
0.0498,4.770839371,-0.306115737
0.05,5.216146535,-0.306115737
0.0502,5.492842248,-0.306115737
0.0504,5.010786435,-0.306115737
0.0506,4.357957486,-0.306115737
0.0508,2.810190839,-0.306115737
0.051,0.609595244,-0.306115737
0.0512,-1.316466324,-0.306115737
0.0514,-2.520525014,-0.306115737
0.0516,-3.207940927,-0.306115737
0.0518,-3.415462712,-0.306115737
0.052,-4.411999618,-0.306115737
0.0522,-5.856005372,-0.306115737
0.0524,-7.300011126,-0.306115737
0.0526,-8.813190809,-0.306115737
0.0528,-10.32637049,-0.306115737
0.053,-11.18672123,-0.306115737
0.0532,-11.80496321,-0.306115737
0.0534,-12.39077992,-0.306115737
0.0536,-12.73448787,-0.306115737
0.0538,-12.97443494,-0.306115737
0.054,-13.73102478,-0.306115737
0.0542,-15.03884436,-0.306115737
0.0544,-16.54986236,-0.306115737
0.0546,-17.41021309,-0.306115737
0.0548,-17.61773488,-0.306115737
0.055,-17.1010921,-0.306115737
0.0552,-16.27532833,-0.306115737
0.0554,-15.86244644,-0.306115737
0.0556,-16.51743708,-0.306115737
0.0558,-17.23943996,-0.306115737
0.056,-17.68474712,-0.306115737
0.0562,-18.61427178,-0.306115737
0.0564,-19.1979268,-0.306115737
0.0566,-19.02715367,-0.306115737
0.0568,-18.54509785,-0.306115737
0.057,-17.65232184,-0.306115737
0.0572,-16.68821021,-0.306115737
0.0574,-16.51743708,-0.306115737
0.0576,-17.51397398,-0.306115737
0.0578,-18.7872066,-0.306115737
0.058,-19.91992968,-0.306115737
0.0582,-20.0928645,-0.306115737
0.0584,-19.74915654,-0.306115737
0.0586,-19.44003555,-0.306115737
0.0588,-19.02715367,-0.306115737
0.059,-18.75261964,-0.306115737
0.0592,-18.92339277,-0.306115737
0.0594,-19.1979268,-0.306115737
0.0596,-19.67998262,-0.306115737
0.0598,-20.02369057,-0.306115737
0.06,-19.98910361,-0.306115737
0.0602,-19.1979268,-0.306115737
0.0604,-17.71933408,-0.306115737
0.0606,-16.06996823,-0.306115737
0.0608,-15.58791242,-0.306115737
0.061,-15.76084724,-0.306115737
0.0612,-15.7954342,-0.306115737
0.0614,-15.69167331,-0.306115737
0.0616,-15.24420446,-0.306115737
0.0618,-14.07473273,-0.306115737
0.062,-12.90526101,-0.306115737
0.0622,-11.94331107,-0.306115737
0.0624,-10.77383934,-0.306115737
0.0626,-9.742715471,-0.306115737
0.0628,-9.56978065,-0.306115737
0.063,-9.673541543,-0.306115737
0.0632,-9.878901643,-0.306115737
0.0634,-9.604367614,-0.306115737
0.0636,-8.642417673,-0.306115737
0.0638,-7.129237991,-0.306115737
0.064,-5.890592336,-0.306115737
0.0642,-5.306937316,-0.306115737
0.0644,-5.443123487,-0.306115737
0.0646,-5.54688438,-0.306115737
0.0648,-5.373949559,-0.306115737
0.065,-5.134002495,-0.306115737
0.0652,-4.686533646,-0.306115737
0.0654,-3.620822812,-0.306115737
0.0656,-2.416764122,-0.306115737
0.0658,-1.145693188,-0.306115737
0.066,-0.010808426,-0.306115737
0.0662,0.505834351,-0.306115737
0.0664,0.644182208,-0.306115737
0.0666,0.780368379,-0.306115737
0.0668,1.262424192,-0.306115737
0.067,2.706429947,-0.306115737
0.0672,4.323370522,-0.306115737
0.0674,5.458255284,-0.306115737
0.0676,6.214845125,-0.306115737
0.0678,6.902261038,-0.306115737
0.068,7.142208102,-0.306115737
0.0682,7.245968995,-0.306115737
0.0684,7.555089987,-0.306115737
0.0686,8.002558836,-0.306115737
0.0688,8.586213856,-0.306115737
0.069,9.686511654,-0.306115737
0.0692,10.82139642,-0.306115737
0.0694,11.71633411,-0.306115737
0.0696,11.75092108,-0.306115737
0.0698,11.37262616,-0.306115737
0.07,11.16726606,-0.306115737
0.0702,11.26886527,-0.306115737
0.0704,11.64716019,-0.306115737
0.0706,12.3345761,-0.306115737
0.0708,12.98956673,-0.306115737
0.071,13.36786165,-0.306115737
0.0712,13.64239568,-0.306115737
0.0714,13.71156961,-0.306115737
0.0716,13.50404783,-0.306115737
0.0718,13.33327469,-0.306115737
0.072,13.26410076,-0.306115737
0.0722,13.64239568,-0.306115737
0.0724,14.56975866,-0.306115737
0.0726,15.56845725,-0.306115737
0.0728,16.25587316,-0.306115737
0.073,16.59958112,-0.306115737
0.0732,16.4266463,-0.306115737
0.0734,16.0159261,-0.306115737
0.0736,16.25587316,-0.306115737
0.0738,16.73792898,-0.306115737
0.074,17.15081086,-0.306115737
0.0742,17.66529195,-0.306115737
0.0744,18.14734777,-0.306115737
0.0746,18.25110866,-0.306115737
0.0748,17.9074007,-0.306115737
0.075,17.2178231,-0.306115737
0.0752,16.29046013,-0.306115737
0.0754,15.22474929,-0.306115737
0.0756,14.36439856,-0.306115737
0.0758,14.19146374,-0.306115737
0.076,14.29522463,-0.306115737
0.0762,13.74615657,-0.306115737
0.0764,12.95497977,-0.306115737
0.0766,12.09462904,-0.306115737
0.0768,11.0289182,-0.306115737
0.077,10.2377414,-0.306115737
0.0772,9.824859511,-0.306115737
0.0774,9.515738519,-0.306115737
0.0776,9.44656459,-0.306115737
0.0778,9.481151555,-0.306115737
0.078,9.515738519,-0.306115737
0.0782,9.44656459,-0.306115737
0.0784,8.897496534,-0.306115737
0.0786,7.898797943,-0.306115737
0.0788,7.040608895,-0.306115737
0.079,6.662313974,-0.306115737
0.0792,6.523966118,-0.306115737
0.0794,6.62772701,-0.306115737
0.0796,6.662313974,-0.306115737
0.0798,6.249432089,-0.306115737
0.08,5.732789312,-0.306115737
0.0802,5.285320463,-0.306115737
0.0804,4.976199471,-0.306115737
0.0806,4.736252407,-0.306115737
0.0808,4.357957486,-0.306115737
0.081,4.115848737,-0.306115737
0.0812,3.945075601,-0.306115737
0.0814,3.39384586,-0.306115737
0.0816,2.535656811,-0.306115737
0.0818,1.193250264,-0.306115737
0.082,-0.629050411,-0.306115737
0.0822,-2.211404022,-0.306115737
0.0824,-2.967993863,-0.306115737
0.0826,-3.31170182,-0.306115737
0.0828,-3.759170669,-0.306115737
0.083,-4.239064797,-0.306115737
0.0832,-4.824881502,-0.306115737
0.0834,-5.581471344,-0.306115737
0.0836,-6.439660392,-0.306115737
0.0838,-7.369185055,-0.306115737
0.084,-8.298709717,-0.306115737
0.0842,-9.020712594,-0.306115737
0.0844,-9.466019758,-0.306115737
0.0846,-9.36442055,-0.306115737
0.0848,-8.916951701,-0.306115737
0.085,-9.020712594,-0.306115737
0.0852,-9.535193686,-0.306115737
0.0854,-10.15559736,-0.306115737
0.0856,-10.49930531,-0.306115737
0.0858,-10.70466541,-0.306115737
0.086,-10.77383934,-0.306115737
0.0862,-10.77383934,-0.306115737
0.0864,-10.9121872,-0.306115737
0.0866,-11.22130819,-0.306115737
0.0868,-11.49584222,-0.306115737
0.087,-11.63419007,-0.306115737
0.0872,-12.18325813,-0.306115737
0.0874,-12.90526101,-0.306115737
0.0876,-13.28355593,-0.306115737
0.0878,-13.31814289,-0.306115737
0.088,-13.04360886,-0.306115737
0.0882,-12.90526101,-0.306115737
0.0884,-13.11278279,-0.306115737
0.0886,-13.76561174,-0.306115737
0.0888,-14.52220158,-0.306115737
0.089,-14.86590954,-0.306115737
0.0892,-14.93508347,-0.306115737
0.0894,-14.9004965,-0.306115737
0.0896,-14.83132258,-0.306115737
0.0898,-14.52220158,-0.306115737
0.09,-14.1093197,-0.306115737
0.0902,-13.80019871,-0.306115737
0.0904,-13.69643781,-0.306115737
0.0906,-13.83478567,-0.306115737
0.0908,-14.07473273,-0.306115737
0.091,-14.07473273,-0.306115737
0.0912,-13.52566468,-0.306115737
0.0914,-12.56155305,-0.306115737
0.0916,-11.83955017,-0.306115737
0.0918,-11.42666829,-0.306115737
0.092,-11.1175473,-0.306115737
0.0922,-10.8084263,-0.306115737
0.0924,-10.49930531,-0.306115737
0.0926,-10.2226096,-0.306115737
0.0928,-9.809727714,-0.306115737
0.093,-9.329833586,-0.306115737
0.0932,-8.813190809,-0.306115737
0.0934,-8.056600968,-0.306115737
0.0936,-7.196250234,-0.306115737
0.0938,-6.852542277,-0.306115737
0.094,-6.887129241,-0.306115737
0.0942,-6.817955313,-0.306115737
0.0944,-6.439660392,-0.306115737
0.0946,-5.890592336,-0.306115737
0.0948,-5.099415531,-0.306115737
0.095,-4.411999618,-0.306115737
0.0952,-3.929943804,-0.306115737
0.0954,-3.586235848,-0.306115737
0.0956,-3.31170182,-0.306115737
0.0958,-2.967993863,-0.306115737
0.096,-2.658872871,-0.306115737
0.0962,-2.416764122,-0.306115737
0.0964,-1.934708309,-0.306115737
0.0966,-1.041932296,-0.306115737
0.0968,-0.181581562,-0.306115737
0.097,0.575008279,-0.306115737
0.0972,1.124076336,-0.306115737
0.0974,1.227837228,-0.306115737
0.0976,1.435359013,-0.306115737
0.0978,1.846079213,-0.306115737
0.098,2.501069847,-0.306115737
0.0982,3.292246652,-0.306115737
0.0984,4.01424953,-0.306115737
0.0986,4.563317586,-0.306115737
0.0988,5.250733499,-0.306115737
0.099,5.732789312,-0.306115737
0.0992,6.00732334,-0.306115737
0.0994,6.249432089,-0.306115737
0.0996,6.420205225,-0.306115737
0.0998,6.593140046,-0.306115737
0.1,7.245968995,-0.306115737
0.1002,8.0371458,-0.306115737
0.1004,8.586213856,-0.306115737
0.1006,8.793735642,-0.306115737
0.1008,8.86290957,-0.306115737
0.101,8.929921813,-0.306115737
0.1012,9.172030562,-0.306115737
0.1014,9.411977626,-0.306115737
0.1016,9.859446475,-0.306115737
0.1018,10.30691532,-0.306115737
0.102,10.54686239,-0.306115737
0.1022,10.78897114,-0.306115737
0.1024,11.06350517,-0.306115737
0.1026,10.99433124,-0.306115737
0.1028,10.71979721,-0.306115737
0.103,10.61603632,-0.306115737
0.1032,10.75438417,-0.306115737
0.1034,11.19969134,-0.306115737
0.1036,11.75092108,-0.306115737
0.1038,12.02545511,-0.306115737
0.104,12.09462904,-0.306115737
0.1042,11.95628118,-0.306115737
0.1044,11.61257322,-0.306115737
0.1046,11.51097401,-0.306115737
0.1048,11.47638705,-0.306115737
0.105,11.26886527,-0.306115737
0.1052,11.19969134,-0.306115737
0.1054,11.2342783,-0.306115737
0.1056,11.26886527,-0.306115737
0.1058,11.2342783,-0.306115737
0.106,10.92515731,-0.306115737
0.1062,10.41067622,-0.306115737
0.1064,9.963207368,-0.306115737
0.1066,9.654086375,-0.306115737
0.1068,9.515738519,-0.306115737
0.107,9.619499411,-0.306115737
0.1072,9.377390662,-0.306115737
0.1074,8.897496534,-0.306115737
0.1076,8.586213856,-0.306115737
0.1078,8.207918936,-0.306115737
0.108,7.829624015,-0.306115737
0.1082,7.624263915,-0.306115737
0.1084,7.349729887,-0.306115737
0.1086,6.971434967,-0.306115737
0.1088,6.936848002,-0.306115737
0.109,6.936848002,-0.306115737
0.1092,6.694739253,-0.306115737
0.1094,6.145671197,-0.306115737
0.1096,5.319907427,-0.306115737
0.1098,4.632491514,-0.306115737
0.11,4.357957486,-0.306115737
0.1102,4.115848737,-0.306115737
0.1104,3.910488637,-0.306115737
0.1106,3.737553816,-0.306115737
0.1108,3.223072724,-0.306115737
0.111,2.671842983,-0.306115737
0.1112,2.258961098,-0.306115737
0.1114,1.744480006,-0.306115737
0.1116,0.9533032,-0.306115737
0.1118,0.196713359,-0.306115737
0.112,-0.216168526,-0.306115737
0.1122,-0.45611559,-0.306115737
0.1124,-0.559876483,-0.306115737
0.1126,-0.972758367,-0.306115737
0.1128,-1.591000352,-0.306115737
0.113,-2.347590193,-0.306115737
0.1132,-3.069593071,-0.306115737
0.1134,-3.415462712,-0.306115737
0.1136,-3.620822812,-0.306115737
0.1138,-4.137465589,-0.306115737
0.114,-4.550347474,-0.306115737
0.1142,-4.859468467,-0.306115737
0.1144,-5.134002495,-0.306115737
0.1146,-5.512297415,-0.306115737
0.1148,-5.9251793,-0.306115737
0.115,-6.508834321,-0.306115737
0.1152,-6.921716206,-0.306115737
0.1154,-7.094651026,-0.306115737
0.1156,-7.060064062,-0.306115737
0.1158,-7.060064062,-0.306115737
0.116,-7.300011126,-0.306115737
0.1162,-7.782066939,-0.306115737
0.1164,-8.264122753,-0.306115737
0.1166,-8.469482852,-0.306115737
0.1168,-8.573243745,-0.306115737
0.117,-8.677004637,-0.306115737
0.1172,-8.677004637,-0.306115737
0.1174,-8.709429916,-0.306115737
0.1176,-8.607830709,-0.306115737
0.1178,-8.573243745,-0.306115737
0.118,-8.607830709,-0.306115737
0.1182,-8.916951701,-0.306115737
0.1184,-9.329833586,-0.306115737
0.1186,-9.500606722,-0.306115737
0.1188,-9.329833586,-0.306115737
0.119,-9.087724837,-0.306115737
0.1192,-8.882364737,-0.306115737
0.1194,-8.778603845,-0.306115737
0.1196,-8.882364737,-0.306115737
0.1198,-9.053137873,-0.306115737
0.12,-9.087724837,-0.306115737
0.1202,-8.98612563,-0.306115737
0.1204,-8.98612563,-0.306115737
0.1206,-8.951538666,-0.306115737
0.1208,-8.573243745,-0.306115737
0.121,-8.125774896,-0.306115737
0.1212,-7.643719083,-0.306115737
0.1214,-7.472945947,-0.306115737
0.1216,-7.403772019,-0.306115737
0.1218,-7.438358983,-0.306115737
0.122,-7.369185055,-0.306115737
0.1222,-7.094651026,-0.306115737
0.1224,-6.681769142,-0.306115737
0.1226,-6.407235113,-0.306115737
0.1228,-6.303474221,-0.306115737
0.123,-6.095952436,-0.306115737
0.1232,-5.821418408,-0.306115737
0.1234,-5.54688438,-0.306115737
0.1236,-5.272350351,-0.306115737
0.1238,-5.064828566,-0.306115737
0.124,-4.755707574,-0.306115737
0.1242,-4.308238725,-0.306115737
0.1244,-3.759170669,-0.306115737
0.1246,-3.138766999,-0.306115737
0.1248,-2.898819935,-0.306115737
0.125,-2.829646007,-0.306115737
0.1252,-2.760472078,-0.306115737
0.1254,-2.48593805,-0.306115737
0.1256,-2.107643129,-0.306115737
0.1258,-1.729348209,-0.306115737
0.126,-1.385640252,-0.306115737
0.1262,-1.111106224,-0.306115737
0.1264,-0.801985232,-0.306115737
0.1266,-0.45611559,-0.306115737
0.1268,-0.146994598,-0.306115737
0.127,-0.04539539,-0.306115737
0.1272,0.058365502,-0.306115737
0.1274,0.265887287,-0.306115737
0.1276,0.780368379,-0.306115737
0.1278,1.262424192,-0.306115737
0.128,1.571545185,-0.306115737
0.1282,1.77906697,-0.306115737
0.1284,1.880666177,-0.306115737
0.1286,1.915253141,-0.306115737
0.1288,2.122774926,-0.306115737
0.129,2.466482883,-0.306115737
0.1292,2.741016911,-0.306115737
0.1294,2.946377011,-0.306115737
0.1296,3.223072724,-0.306115737
0.1298,3.532193716,-0.306115737
0.13,3.841314709,-0.306115737
0.1302,3.979662565,-0.306115737
0.1304,4.01424953,-0.306115737
0.1306,4.048836494,-0.306115737
0.1308,4.185022665,-0.306115737
0.131,4.459556693,-0.306115737
0.1312,4.872438578,-0.306115737
0.1314,5.079960363,-0.306115737
0.1316,5.114547327,-0.306115737
0.1318,5.045373399,-0.306115737
0.132,5.114547327,-0.306115737
0.1322,5.285320463,-0.306115737
0.1324,5.389081356,-0.306115737
0.1326,5.42366832,-0.306115737
0.1328,5.492842248,-0.306115737
0.133,5.559854491,-0.306115737
0.1332,5.698202348,-0.306115737
0.1334,5.871137169,-0.306115737
0.1336,5.836550205,-0.306115737
0.1338,5.663615384,-0.306115737
0.134,5.559854491,-0.306115737
0.1342,5.663615384,-0.306115737
0.1344,5.836550205,-0.306115737
0.1346,6.00732334,-0.306115737
0.1348,6.076497269,-0.306115737
0.135,6.00732334,-0.306115737
0.1352,5.938149412,-0.306115737
0.1354,5.938149412,-0.306115737
0.1356,6.00732334,-0.306115737
0.1358,5.972736376,-0.306115737
0.136,5.80196324,-0.306115737
0.1362,5.698202348,-0.306115737
0.1364,5.80196324,-0.306115737
0.1366,5.871137169,-0.306115737
0.1368,5.836550205,-0.306115737
0.137,5.663615384,-0.306115737
0.1372,5.389081356,-0.306115737
0.1374,5.183721256,-0.306115737
0.1376,5.045373399,-0.306115737
0.1378,5.183721256,-0.306115737
0.138,5.216146535,-0.306115737
0.1382,4.976199471,-0.306115737
0.1384,4.736252407,-0.306115737
0.1386,4.59790455,-0.306115737
0.1388,4.494143658,-0.306115737
0.139,4.219609629,-0.306115737
0.1392,3.945075601,-0.306115737
0.1394,3.670541573,-0.306115737
0.1396,3.463019788,-0.306115737
0.1398,3.463019788,-0.306115737
0.14,3.566780681,-0.306115737
0.1402,3.428432824,-0.306115737
0.1404,3.119311832,-0.306115737
0.1406,2.844777803,-0.306115737
0.1408,2.637256018,-0.306115737
0.141,2.535656811,-0.306115737
0.1412,2.501069847,-0.306115737
0.1414,2.36272199,-0.306115737
0.1416,2.15736189,-0.306115737
0.1418,1.949840105,-0.306115737
0.142,1.77906697,-0.306115737
0.1422,1.675306077,-0.306115737
0.1424,1.435359013,-0.306115737
0.1426,0.9533032,-0.306115737
0.1428,0.609595244,-0.306115737
0.143,0.436660423,-0.306115737
0.1432,0.367486494,-0.306115737
0.1434,0.231300323,-0.306115737
0.1436,-0.04539539,-0.306115737
0.1438,-0.45611559,-0.306115737
0.144,-0.801985232,-0.306115737
0.1442,-1.041932296,-0.306115737
0.1444,-1.212705431,-0.306115737
0.1446,-1.351053288,-0.306115737
0.1448,-1.591000352,-0.306115737
0.145,-1.867696065,-0.306115737
0.1452,-1.969295273,-0.306115737
0.1454,-1.969295273,-0.306115737
0.1456,-2.211404022,-0.306115737
0.1458,-2.520525014,-0.306115737
0.146,-2.864232971,-0.306115737
0.1462,-3.138766999,-0.306115737
0.1464,-3.242527891,-0.306115737
0.1466,-3.242527891,-0.306115737
0.1468,-3.31170182,-0.306115737
0.147,-3.51706192,-0.306115737
0.1472,-3.89535684,-0.306115737
0.1474,-4.033704697,-0.306115737
0.1476,-4.068291661,-0.306115737
0.1478,-4.172052554,-0.306115737
0.148,-4.342825689,-0.306115737
0.1482,-4.411999618,-0.306115737
0.1484,-4.51576051,-0.306115737
0.1486,-4.51576051,-0.306115737
0.1488,-4.446586582,-0.306115737
0.149,-4.51576051,-0.306115737
0.1492,-4.790294538,-0.306115737
0.1494,-4.995654638,-0.306115737
0.1496,-5.134002495,-0.306115737
0.1498,-5.064828566,-0.306115737
0.15,-5.030241602,-0.306115737
0.1502,-5.099415531,-0.306115737
0.1504,-5.168589459,-0.306115737
0.1506,-5.237763387,-0.306115737
0.1508,-5.339362595,-0.306115737
0.151,-5.306937316,-0.306115737
0.1512,-5.306937316,-0.306115737
0.1514,-5.408536523,-0.306115737
0.1516,-5.408536523,-0.306115737
0.1518,-5.272350351,-0.306115737
0.152,-5.134002495,-0.306115737
0.1522,-4.961067674,-0.306115737
0.1524,-4.961067674,-0.306115737
0.1526,-5.030241602,-0.306115737
0.1528,-5.030241602,-0.306115737
0.153,-4.928642395,-0.306115737
0.1532,-4.72112061,-0.306115737
0.1534,-4.481173546,-0.306115737
0.1536,-4.308238725,-0.306115737
0.1538,-4.273651761,-0.306115737
0.154,-4.172052554,-0.306115737
0.1542,-3.964530769,-0.306115737
0.1544,-3.89535684,-0.306115737
0.1546,-3.793757633,-0.306115737
0.1548,-3.620822812,-0.306115737
0.155,-3.51706192,-0.306115737
0.1552,-3.242527891,-0.306115737
0.1554,-2.933406899,-0.306115737
0.1556,-2.658872871,-0.306115737
0.1558,-2.555111978,-0.306115737
0.156,-2.555111978,-0.306115737
0.1562,-2.451351086,-0.306115737
0.1564,-2.211404022,-0.306115737
0.1566,-1.969295273,-0.306115737
0.1568,-1.763935173,-0.306115737
0.157,-1.558575073,-0.306115737
0.1572,-1.385640252,-0.306115737
0.1574,-1.180280152,-0.306115737
0.1576,-0.868997475,-0.306115737
0.1578,-0.629050411,-0.306115737
0.158,-0.525289518,-0.306115737
0.1582,-0.423690311,-0.306115737
0.1584,-0.216168526,-0.306115737
0.1586,0.092952466,-0.306115737
0.1588,0.471247387,-0.306115737
0.159,0.678769172,-0.306115737
0.1592,0.884129272,-0.306115737
0.1594,1.022477128,-0.306115737
0.1596,1.193250264,-0.306115737
0.1598,1.435359013,-0.306115737
0.16,1.709893041,-0.306115737
0.1602,1.846079213,-0.306115737
0.1604,1.915253141,-0.306115737
0.1606,2.15736189,-0.306115737
0.1608,2.397308954,-0.306115737
0.161,2.56808209,-0.306115737
0.1612,2.741016911,-0.306115737
0.1614,2.775603875,-0.306115737
0.1616,2.775603875,-0.306115737
0.1618,2.980963975,-0.306115737
0.162,3.18848576,-0.306115737
0.1622,3.428432824,-0.306115737
0.1624,3.532193716,-0.306115737
0.1626,3.497606752,-0.306115737
0.1628,3.532193716,-0.306115737
0.163,3.702966852,-0.306115737
0.1632,3.841314709,-0.306115737
0.1634,3.841314709,-0.306115737
0.1636,3.910488637,-0.306115737
0.1638,3.945075601,-0.306115737
0.164,4.048836494,-0.306115737
0.1642,4.185022665,-0.306115737
0.1644,4.288783558,-0.306115737
0.1646,4.254196594,-0.306115737
0.1648,4.115848737,-0.306115737
0.165,4.081261773,-0.306115737
0.1652,4.219609629,-0.306115737
0.1654,4.39254445,-0.306115737
0.1656,4.39254445,-0.306115737
0.1658,4.323370522,-0.306115737
0.166,4.254196594,-0.306115737
0.1662,4.219609629,-0.306115737
0.1664,4.185022665,-0.306115737
0.1666,4.185022665,-0.306115737
0.1668,4.081261773,-0.306115737
0.167,3.910488637,-0.306115737
0.1672,3.806727745,-0.306115737
0.1674,3.875901673,-0.306115737
0.1676,3.841314709,-0.306115737
0.1678,3.77214078,-0.306115737
0.168,3.532193716,-0.306115737
0.1682,3.324671931,-0.306115737
0.1684,3.223072724,-0.306115737
0.1686,3.18848576,-0.306115737
0.1688,3.153898796,-0.306115737
0.169,3.084724867,-0.306115737
0.1692,2.879364768,-0.306115737
0.1694,2.741016911,-0.306115737
0.1696,2.706429947,-0.306115737
0.1698,2.671842983,-0.306115737
0.17,2.466482883,-0.306115737
0.1702,2.293548062,-0.306115737
0.1704,2.088187962,-0.306115737
0.1706,1.949840105,-0.306115737
0.1708,1.915253141,-0.306115737
0.171,1.846079213,-0.306115737
0.1712,1.709893041,-0.306115737
0.1714,1.435359013,-0.306115737
0.1716,1.193250264,-0.306115737
0.1718,1.124076336,-0.306115737
0.172,1.057064093,-0.306115737
0.1722,0.918716236,-0.306115737
0.1724,0.644182208,-0.306115737
0.1726,0.436660423,-0.306115737
0.1728,0.265887287,-0.306115737
0.173,0.162126395,-0.306115737
0.1732,0.058365502,-0.306115737
0.1734,-0.181581562,-0.306115737
0.1736,-0.45611559,-0.306115737
0.1738,-0.663637375,-0.306115737
0.174,-0.732811303,-0.306115737
0.1742,-0.732811303,-0.306115737
0.1744,-0.868997475,-0.306115737
0.1746,-1.145693188,-0.306115737
0.1748,-1.385640252,-0.306115737
0.175,-1.489401145,-0.306115737
0.1752,-1.591000352,-0.306115737
0.1754,-1.625587316,-0.306115737
0.1756,-1.763935173,-0.306115737
0.1758,-1.934708309,-0.306115737
0.176,-2.003882237,-0.306115737
0.1762,-1.969295273,-0.306115737
0.1764,-1.969295273,-0.306115737
0.1766,-1.969295273,-0.306115737
0.1768,-2.142230094,-0.306115737
0.177,-2.245990986,-0.306115737
0.1772,-2.28057795,-0.306115737
0.1774,-2.28057795,-0.306115737
0.1776,-2.28057795,-0.306115737
0.1778,-2.347590193,-0.306115737
0.178,-2.520525014,-0.306115737
0.1782,-2.658872871,-0.306115737
0.1784,-2.658872871,-0.306115737
0.1786,-2.658872871,-0.306115737
0.1788,-2.725885114,-0.306115737
0.179,-2.829646007,-0.306115737
0.1792,-2.933406899,-0.306115737
0.1794,-2.967993863,-0.306115737
0.1796,-2.967993863,-0.306115737
0.1798,-2.967993863,-0.306115737
0.18,-3.069593071,-0.306115737
0.1802,-3.207940927,-0.306115737
0.1804,-3.31170182,-0.306115737
0.1806,-3.242527891,-0.306115737
0.1808,-3.104180035,-0.306115737
0.181,-3.069593071,-0.306115737
0.1812,-3.138766999,-0.306115737
0.1814,-3.104180035,-0.306115737
0.1816,-3.104180035,-0.306115737
0.1818,-3.037167792,-0.306115737
0.182,-2.933406899,-0.306115737
0.1822,-2.864232971,-0.306115737
0.1824,-2.864232971,-0.306115737
0.1826,-2.829646007,-0.306115737
0.1828,-2.69129815,-0.306115737
0.183,-2.520525014,-0.306115737
0.1832,-2.451351086,-0.306115737
0.1834,-2.48593805,-0.306115737
0.1836,-2.48593805,-0.306115737
0.1838,-2.416764122,-0.306115737
0.184,-2.28057795,-0.306115737
0.1842,-2.142230094,-0.306115737
0.1844,-2.038469201,-0.306115737
0.1846,-2.003882237,-0.306115737
0.1848,-1.969295273,-0.306115737
0.185,-1.867696065,-0.306115737
0.1852,-1.694761245,-0.306115737
0.1854,-1.625587316,-0.306115737
0.1856,-1.625587316,-0.306115737
0.1858,-1.591000352,-0.306115737
0.186,-1.489401145,-0.306115737
0.1862,-1.316466324,-0.306115737
0.1864,-1.180280152,-0.306115737
0.1866,-1.07651926,-0.306115737
0.1868,-1.07651926,-0.306115737
0.187,-1.007345332,-0.306115737
0.1872,-0.903584439,-0.306115737
0.1874,-0.663637375,-0.306115737
0.1876,-0.490702554,-0.306115737
0.1878,-0.389103347,-0.306115737
0.188,-0.319929419,-0.306115737
0.1882,-0.146994598,-0.306115737
0.1884,0.058365502,-0.306115737
0.1886,0.265887287,-0.306115737
0.1888,0.402073459,-0.306115737
0.189,0.436660423,-0.306115737
0.1892,0.505834351,-0.306115737
0.1894,0.644182208,-0.306115737
0.1896,0.884129272,-0.306115737
0.1898,1.022477128,-0.306115737
0.19,1.022477128,-0.306115737
0.1902,1.022477128,-0.306115737
0.1904,1.089489372,-0.306115737
0.1906,1.227837228,-0.306115737
0.1908,1.400772049,-0.306115737
0.191,1.536958221,-0.306115737
0.1912,1.606132149,-0.306115737
0.1914,1.640719113,-0.306115737
0.1916,1.744480006,-0.306115737
0.1918,1.880666177,-0.306115737
0.192,1.98442707,-0.306115737
0.1922,1.98442707,-0.306115737
0.1924,1.98442707,-0.306115737
0.1926,2.019014034,-0.306115737
0.1928,2.15736189,-0.306115737
0.193,2.293548062,-0.306115737
0.1932,2.36272199,-0.306115737
0.1934,2.36272199,-0.306115737
0.1936,2.36272199,-0.306115737
0.1938,2.431895919,-0.306115737
0.194,2.56808209,-0.306115737
0.1942,2.637256018,-0.306115737
0.1944,2.637256018,-0.306115737
0.1946,2.637256018,-0.306115737
0.1948,2.671842983,-0.306115737
0.195,2.706429947,-0.306115737
0.1952,2.775603875,-0.306115737
0.1954,2.810190839,-0.306115737
0.1956,2.741016911,-0.306115737
0.1958,2.706429947,-0.306115737
0.196,2.741016911,-0.306115737
0.1962,2.844777803,-0.306115737
0.1964,2.844777803,-0.306115737
0.1966,2.810190839,-0.306115737
0.1968,2.706429947,-0.306115737
0.197,2.671842983,-0.306115737
0.1972,2.671842983,-0.306115737
0.1974,2.671842983,-0.306115737
0.1976,2.671842983,-0.306115737
0.1978,2.56808209,-0.306115737
0.198,2.431895919,-0.306115737
0.1982,2.466482883,-0.306115737
0.1984,2.501069847,-0.306115737
0.1986,2.431895919,-0.306115737
0.1988,2.36272199,-0.306115737
0.199,2.224374134,-0.306115737
0.1992,2.122774926,-0.306115737
0.1994,2.088187962,-0.306115737
0.1996,2.088187962,-0.306115737
0.1998,1.98442707,-0.306115737
0.2,1.846079213,-0.306115737
0.2002,1.675306077,-0.306115737
0.2004,1.571545185,-0.306115737
0.2006,1.536958221,-0.306115737
0.2008,1.435359013,-0.306115737
0.201,1.297011157,-0.306115737
0.2012,1.089489372,-0.306115737
0.2014,0.987890164,-0.306115737
0.2016,0.9533032,-0.306115737
0.2018,0.918716236,-0.306115737
0.202,0.814955343,-0.306115737
0.2022,0.609595244,-0.306115737
0.2024,0.402073459,-0.306115737
0.2026,0.33289953,-0.306115737
0.2028,0.265887287,-0.306115737
0.203,0.196713359,-0.306115737
0.2032,0.058365502,-0.306115737
0.2034,-0.181581562,-0.306115737
0.2036,-0.285342454,-0.306115737
0.2038,-0.389103347,-0.306115737
0.204,-0.45611559,-0.306115737
0.2042,-0.594463447,-0.306115737
0.2044,-0.767398268,-0.306115737
0.2046,-0.938171403,-0.306115737
0.2048,-1.007345332,-0.306115737
0.205,-1.007345332,-0.306115737
0.2052,-1.07651926,-0.306115737
0.2054,-1.180280152,-0.306115737
0.2056,-1.351053288,-0.306115737
0.2058,-1.454814181,-0.306115737
0.206,-1.489401145,-0.306115737
0.2062,-1.558575073,-0.306115737
0.2064,-1.625587316,-0.306115737
0.2066,-1.729348209,-0.306115737
0.2068,-1.934708309,-0.306115737
0.207,-2.003882237,-0.306115737
0.2072,-2.003882237,-0.306115737
0.2074,-2.073056165,-0.306115737
0.2076,-2.245990986,-0.306115737
0.2078,-2.313003229,-0.306115737
0.208,-2.416764122,-0.306115737
0.2082,-2.416764122,-0.306115737
0.2084,-2.382177158,-0.306115737
0.2086,-2.382177158,-0.306115737
0.2088,-2.451351086,-0.306115737
0.209,-2.555111978,-0.306115737
0.2092,-2.589698943,-0.306115737
0.2094,-2.555111978,-0.306115737
0.2096,-2.555111978,-0.306115737
0.2098,-2.589698943,-0.306115737
0.21,-2.69129815,-0.306115737
0.2102,-2.725885114,-0.306115737
0.2104,-2.69129815,-0.306115737
0.2106,-2.658872871,-0.306115737
0.2108,-2.589698943,-0.306115737
0.211,-2.624285907,-0.306115737
0.2112,-2.658872871,-0.306115737
0.2114,-2.555111978,-0.306115737
0.2116,-2.48593805,-0.306115737
0.2118,-2.313003229,-0.306115737
0.212,-2.28057795,-0.306115737
0.2122,-2.313003229,-0.306115737
0.2124,-2.245990986,-0.306115737
0.2126,-2.107643129,-0.306115737
0.2128,-2.003882237,-0.306115737
0.213,-1.934708309,-0.306115737
0.2132,-1.90228303,-0.306115737
0.2134,-1.867696065,-0.306115737
0.2136,-1.798522137,-0.306115737
0.2138,-1.591000352,-0.306115737
0.214,-1.489401145,-0.306115737
0.2142,-1.454814181,-0.306115737
0.2144,-1.420227216,-0.306115737
0.2146,-1.351053288,-0.306115737
0.2148,-1.247292396,-0.306115737
0.215,-1.07651926,-0.306115737
0.2152,-0.972758367,-0.306115737
0.2154,-0.903584439,-0.306115737
0.2156,-0.868997475,-0.306115737
0.2158,-0.801985232,-0.306115737
0.216,-0.594463447,-0.306115737
0.2162,-0.45611559,-0.306115737
0.2164,-0.389103347,-0.306115737
0.2166,-0.354516383,-0.306115737
0.2168,-0.25075549,-0.306115737
0.217,-0.077820669,-0.306115737
0.2172,0.023778538,-0.306115737
0.2174,0.162126395,-0.306115737
0.2176,0.231300323,-0.306115737
0.2178,0.231300323,-0.306115737
0.218,0.33289953,-0.306115737
0.2182,0.505834351,-0.306115737
0.2184,0.644182208,-0.306115737
0.2186,0.711194451,-0.306115737
0.2188,0.745781415,-0.306115737
0.219,0.849542308,-0.306115737
0.2192,0.987890164,-0.306115737
0.2194,1.124076336,-0.306115737
0.2196,1.193250264,-0.306115737
0.2198,1.262424192,-0.306115737
0.22,1.262424192,-0.306115737
0.2202,1.297011157,-0.306115737
0.2204,1.400772049,-0.306115737
0.2206,1.467784292,-0.306115737
0.2208,1.467784292,-0.306115737
0.221,1.467784292,-0.306115737
0.2212,1.435359013,-0.306115737
0.2214,1.536958221,-0.306115737
0.2216,1.571545185,-0.306115737
0.2218,1.606132149,-0.306115737
0.222,1.606132149,-0.306115737
0.2222,1.606132149,-0.306115737
0.2224,1.640719113,-0.306115737
0.2226,1.744480006,-0.306115737
0.2228,1.880666177,-0.306115737
0.223,1.880666177,-0.306115737
0.2232,1.880666177,-0.306115737
0.2234,1.880666177,-0.306115737
0.2236,1.915253141,-0.306115737
0.2238,1.98442707,-0.306115737
0.224,1.98442707,-0.306115737
0.2242,1.949840105,-0.306115737
0.2244,1.846079213,-0.306115737
0.2246,1.811492249,-0.306115737
0.2248,1.880666177,-0.306115737
0.225,1.915253141,-0.306115737
0.2252,1.880666177,-0.306115737
0.2254,1.811492249,-0.306115737
0.2256,1.744480006,-0.306115737
0.2258,1.744480006,-0.306115737
0.226,1.77906697,-0.306115737
0.2262,1.744480006,-0.306115737
0.2264,1.709893041,-0.306115737
0.2266,1.606132149,-0.306115737
0.2268,1.536958221,-0.306115737
0.227,1.571545185,-0.306115737
0.2272,1.571545185,-0.306115737
0.2274,1.502371256,-0.306115737
0.2276,1.400772049,-0.306115737
0.2278,1.297011157,-0.306115737
0.228,1.297011157,-0.306115737
0.2282,1.297011157,-0.306115737
0.2284,1.297011157,-0.306115737
0.2286,1.262424192,-0.306115737
0.2288,1.124076336,-0.306115737
0.229,1.022477128,-0.306115737
0.2292,1.057064093,-0.306115737
0.2294,1.057064093,-0.306115737
0.2296,0.987890164,-0.306115737
0.2298,0.884129272,-0.306115737
0.23,0.814955343,-0.306115737
0.2302,0.780368379,-0.306115737
0.2304,0.780368379,-0.306115737
0.2306,0.711194451,-0.306115737
0.2308,0.609595244,-0.306115737
0.231,0.505834351,-0.306115737
0.2312,0.436660423,-0.306115737
0.2314,0.367486494,-0.306115737
0.2316,0.367486494,-0.306115737
0.2318,0.33289953,-0.306115737
0.232,0.162126395,-0.306115737
0.2322,0.058365502,-0.306115737
0.2324,0.023778538,-0.306115737
0.2326,-0.04539539,-0.306115737
0.2328,-0.04539539,-0.306115737
0.233,-0.112407634,-0.306115737
0.2332,-0.25075549,-0.306115737
0.2334,-0.319929419,-0.306115737
0.2336,-0.319929419,-0.306115737
0.2338,-0.319929419,-0.306115737
0.234,-0.319929419,-0.306115737
0.2342,-0.45611559,-0.306115737
0.2344,-0.525289518,-0.306115737
0.2346,-0.525289518,-0.306115737
0.2348,-0.525289518,-0.306115737
0.235,-0.559876483,-0.306115737
0.2352,-0.594463447,-0.306115737
0.2354,-0.698224339,-0.306115737
0.2356,-0.767398268,-0.306115737
0.2358,-0.767398268,-0.306115737
0.236,-0.732811303,-0.306115737
0.2362,-0.767398268,-0.306115737
0.2364,-0.868997475,-0.306115737
0.2366,-1.007345332,-0.306115737
0.2368,-0.972758367,-0.306115737
0.237,-0.938171403,-0.306115737
0.2372,-0.938171403,-0.306115737
0.2374,-1.007345332,-0.306115737
0.2376,-1.111106224,-0.306115737
0.2378,-1.145693188,-0.306115737
0.238,-1.180280152,-0.306115737
0.2382,-1.145693188,-0.306115737
0.2384,-1.180280152,-0.306115737
0.2386,-1.28187936,-0.306115737
0.2388,-1.316466324,-0.306115737
0.239,-1.316466324,-0.306115737
0.2392,-1.316466324,-0.306115737
0.2394,-1.316466324,-0.306115737
0.2396,-1.316466324,-0.306115737
0.2398,-1.420227216,-0.306115737
0.24,-1.420227216,-0.306115737
0.2402,-1.420227216,-0.306115737
0.2404,-1.385640252,-0.306115737
0.2406,-1.351053288,-0.306115737
0.2408,-1.420227216,-0.306115737
0.241,-1.489401145,-0.306115737
0.2412,-1.454814181,-0.306115737
0.2414,-1.420227216,-0.306115737
0.2416,-1.420227216,-0.306115737
0.2418,-1.420227216,-0.306115737
0.242,-1.420227216,-0.306115737
0.2422,-1.454814181,-0.306115737
0.2424,-1.420227216,-0.306115737
0.2426,-1.316466324,-0.306115737
0.2428,-1.316466324,-0.306115737
0.243,-1.316466324,-0.306115737
0.2432,-1.351053288,-0.306115737
0.2434,-1.316466324,-0.306115737
0.2436,-1.212705431,-0.306115737
0.2438,-1.180280152,-0.306115737
0.244,-1.180280152,-0.306115737
0.2442,-1.180280152,-0.306115737
0.2444,-1.145693188,-0.306115737
0.2446,-1.07651926,-0.306115737
0.2448,-0.972758367,-0.306115737
0.245,-0.903584439,-0.306115737
0.2452,-0.938171403,-0.306115737
0.2454,-0.938171403,-0.306115737
0.2456,-0.868997475,-0.306115737
0.2458,-0.801985232,-0.306115737
0.246,-0.732811303,-0.306115737
0.2462,-0.698224339,-0.306115737
0.2464,-0.698224339,-0.306115737
0.2466,-0.698224339,-0.306115737
0.2468,-0.594463447,-0.306115737
0.247,-0.490702554,-0.306115737
0.2472,-0.45611559,-0.306115737
0.2474,-0.45611559,-0.306115737
0.2476,-0.45611559,-0.306115737
0.2478,-0.389103347,-0.306115737
0.248,-0.285342454,-0.306115737
0.2482,-0.216168526,-0.306115737
0.2484,-0.146994598,-0.306115737
0.2486,-0.112407634,-0.306115737
0.2488,-0.112407634,-0.306115737
0.249,-0.010808426,-0.306115737
0.2492,0.12753943,-0.306115737
0.2494,0.196713359,-0.306115737
0.2496,0.231300323,-0.306115737
0.2498,0.196713359,-0.306115737
0.25,0.265887287,-0.306115737
0.2502,0.367486494,-0.306115737
0.2504,0.471247387,-0.306115737
0.2506,0.505834351,-0.306115737
0.2508,0.505834351,-0.306115737
0.251,0.575008279,-0.306115737
0.2512,0.644182208,-0.306115737
0.2514,0.814955343,-0.306115737
0.2516,0.884129272,-0.306115737
0.2518,0.884129272,-0.306115737
0.252,0.884129272,-0.306115737
0.2522,0.9533032,-0.306115737
0.2524,1.022477128,-0.306115737
0.2526,1.1586633,-0.306115737
0.2528,1.1586633,-0.306115737
0.253,1.1586633,-0.306115737
0.2532,1.1586633,-0.306115737
0.2534,1.193250264,-0.306115737
0.2536,1.297011157,-0.306115737
0.2538,1.366185085,-0.306115737
0.254,1.331598121,-0.306115737
0.2542,1.297011157,-0.306115737
0.2544,1.331598121,-0.306115737
0.2546,1.435359013,-0.306115737
0.2548,1.467784292,-0.306115737
0.255,1.502371256,-0.306115737
0.2552,1.467784292,-0.306115737
0.2554,1.435359013,-0.306115737
0.2556,1.502371256,-0.306115737
0.2558,1.571545185,-0.306115737
0.256,1.571545185,-0.306115737
0.2562,1.502371256,-0.306115737
0.2564,1.435359013,-0.306115737
0.2566,1.366185085,-0.306115737
0.2568,1.435359013,-0.306115737
0.257,1.467784292,-0.306115737
0.2572,1.435359013,-0.306115737
0.2574,1.366185085,-0.306115737
0.2576,1.331598121,-0.306115737
0.2578,1.331598121,-0.306115737
0.258,1.435359013,-0.306115737
0.2582,1.400772049,-0.306115737
0.2584,1.297011157,-0.306115737
0.2586,1.193250264,-0.306115737
0.2588,1.193250264,-0.306115737
0.259,1.193250264,-0.306115737
0.2592,1.193250264,-0.306115737
0.2594,1.089489372,-0.306115737
0.2596,1.022477128,-0.306115737
0.2598,0.987890164,-0.306115737
0.26,0.9533032,-0.306115737
0.2602,0.987890164,-0.306115737
0.2604,0.9533032,-0.306115737
0.2606,0.849542308,-0.306115737
0.2608,0.711194451,-0.306115737
0.261,0.644182208,-0.306115737
0.2612,0.609595244,-0.306115737
0.2614,0.575008279,-0.306115737
0.2616,0.505834351,-0.306115737
0.2618,0.436660423,-0.306115737
0.262,0.33289953,-0.306115737
0.2622,0.300474251,-0.306115737
0.2624,0.300474251,-0.306115737
0.2626,0.265887287,-0.306115737
0.2628,0.196713359,-0.306115737
0.263,0.092952466,-0.306115737
0.2632,-0.010808426,-0.306115737
0.2634,-0.010808426,-0.306115737
0.2636,-0.010808426,-0.306115737
0.2638,-0.077820669,-0.306115737
0.264,-0.181581562,-0.306115737
0.2642,-0.25075549,-0.306115737
0.2644,-0.319929419,-0.306115737
0.2646,-0.285342454,-0.306115737
0.2648,-0.319929419,-0.306115737
0.265,-0.389103347,-0.306115737
0.2652,-0.490702554,-0.306115737
0.2654,-0.559876483,-0.306115737
0.2656,-0.559876483,-0.306115737
0.2658,-0.559876483,-0.306115737
0.266,-0.594463447,-0.306115737
0.2662,-0.698224339,-0.306115737
0.2664,-0.767398268,-0.306115737
0.2666,-0.801985232,-0.306115737
0.2668,-0.801985232,-0.306115737
0.267,-0.801985232,-0.306115737
0.2672,-0.903584439,-0.306115737
0.2674,-1.007345332,-0.306115737
0.2676,-1.007345332,-0.306115737
0.2678,-1.007345332,-0.306115737
0.268,-1.007345332,-0.306115737
0.2682,-1.041932296,-0.306115737
0.2684,-1.111106224,-0.306115737
0.2686,-1.180280152,-0.306115737
0.2688,-1.180280152,-0.306115737
0.269,-1.145693188,-0.306115737
0.2692,-1.145693188,-0.306115737
0.2694,-1.180280152,-0.306115737
0.2696,-1.212705431,-0.306115737
0.2698,-1.247292396,-0.306115737
0.27,-1.180280152,-0.306115737
0.2702,-1.145693188,-0.306115737
0.2704,-1.145693188,-0.306115737
0.2706,-1.180280152,-0.306115737
0.2708,-1.212705431,-0.306115737
0.271,-1.180280152,-0.306115737
0.2712,-1.145693188,-0.306115737
0.2714,-1.111106224,-0.306115737
0.2716,-1.111106224,-0.306115737
0.2718,-1.145693188,-0.306115737
0.272,-1.145693188,-0.306115737
0.2722,-1.041932296,-0.306115737
0.2724,-1.041932296,-0.306115737
0.2726,-1.007345332,-0.306115737
0.2728,-1.041932296,-0.306115737
0.273,-1.041932296,-0.306115737
0.2732,-1.041932296,-0.306115737
0.2734,-0.972758367,-0.306115737
0.2736,-0.903584439,-0.306115737
0.2738,-0.903584439,-0.306115737
0.274,-0.903584439,-0.306115737
0.2742,-0.903584439,-0.306115737
0.2744,-0.834410511,-0.306115737
0.2746,-0.732811303,-0.306115737
0.2748,-0.698224339,-0.306115737
0.275,-0.732811303,-0.306115737
0.2752,-0.698224339,-0.306115737
0.2754,-0.629050411,-0.306115737
0.2756,-0.594463447,-0.306115737
0.2758,-0.490702554,-0.306115737
0.276,-0.45611559,-0.306115737
0.2762,-0.45611559,-0.306115737
0.2764,-0.423690311,-0.306115737
0.2766,-0.319929419,-0.306115737
0.2768,-0.285342454,-0.306115737
0.277,-0.216168526,-0.306115737
0.2772,-0.216168526,-0.306115737
0.2774,-0.216168526,-0.306115737
0.2776,-0.181581562,-0.306115737
0.2778,-0.112407634,-0.306115737
0.278,-0.04539539,-0.306115737
0.2782,-0.010808426,-0.306115737
0.2784,-0.010808426,-0.306115737
0.2786,-0.010808426,-0.306115737
0.2788,0.092952466,-0.306115737
0.279,0.162126395,-0.306115737
0.2792,0.162126395,-0.306115737
0.2794,0.196713359,-0.306115737
0.2796,0.196713359,-0.306115737
0.2798,0.231300323,-0.306115737
0.28,0.33289953,-0.306115737
0.2802,0.367486494,-0.306115737
0.2804,0.367486494,-0.306115737
0.2806,0.402073459,-0.306115737
0.2808,0.436660423,-0.306115737
0.281,0.505834351,-0.306115737
0.2812,0.575008279,-0.306115737
0.2814,0.609595244,-0.306115737
0.2816,0.609595244,-0.306115737
0.2818,0.609595244,-0.306115737
0.282,0.609595244,-0.306115737
0.2822,0.644182208,-0.306115737
0.2824,0.780368379,-0.306115737
0.2826,0.780368379,-0.306115737
0.2828,0.711194451,-0.306115737
0.283,0.780368379,-0.306115737
0.2832,0.849542308,-0.306115737
0.2834,0.918716236,-0.306115737
0.2836,0.9533032,-0.306115737
0.2838,0.9533032,-0.306115737
0.284,0.918716236,-0.306115737
0.2842,0.9533032,-0.306115737
0.2844,0.987890164,-0.306115737
0.2846,1.022477128,-0.306115737
0.2848,0.987890164,-0.306115737
0.285,0.987890164,-0.306115737
0.2852,0.918716236,-0.306115737
0.2854,1.022477128,-0.306115737
0.2856,1.057064093,-0.306115737
0.2858,1.057064093,-0.306115737
0.286,1.057064093,-0.306115737
0.2862,1.022477128,-0.306115737
0.2864,0.9533032,-0.306115737
0.2866,1.022477128,-0.306115737
0.2868,1.022477128,-0.306115737
0.287,1.022477128,-0.306115737
0.2872,1.022477128,-0.306115737
0.2874,0.9533032,-0.306115737
0.2876,0.987890164,-0.306115737
0.2878,0.987890164,-0.306115737
0.288,0.987890164,-0.306115737
0.2882,0.918716236,-0.306115737
0.2884,0.884129272,-0.306115737
0.2886,0.849542308,-0.306115737
0.2888,0.884129272,-0.306115737
0.289,0.884129272,-0.306115737
0.2892,0.849542308,-0.306115737
0.2894,0.814955343,-0.306115737
0.2896,0.711194451,-0.306115737
0.2898,0.711194451,-0.306115737
0.29,0.711194451,-0.306115737
0.2902,0.678769172,-0.306115737
0.2904,0.609595244,-0.306115737
0.2906,0.575008279,-0.306115737
0.2908,0.540421315,-0.306115737
0.291,0.540421315,-0.306115737
0.2912,0.505834351,-0.306115737
0.2914,0.505834351,-0.306115737
0.2916,0.436660423,-0.306115737
0.2918,0.367486494,-0.306115737
0.292,0.367486494,-0.306115737
0.2922,0.402073459,-0.306115737
0.2924,0.367486494,-0.306115737
0.2926,0.300474251,-0.306115737
0.2928,0.231300323,-0.306115737
0.293,0.196713359,-0.306115737
0.2932,0.196713359,-0.306115737
0.2934,0.231300323,-0.306115737
0.2936,0.162126395,-0.306115737
0.2938,0.092952466,-0.306115737
0.294,0.058365502,-0.306115737
0.2942,-0.010808426,-0.306115737
0.2944,-0.010808426,-0.306115737
0.2946,-0.010808426,-0.306115737
0.2948,-0.112407634,-0.306115737
0.295,-0.181581562,-0.306115737
0.2952,-0.216168526,-0.306115737
0.2954,-0.25075549,-0.306115737
0.2956,-0.25075549,-0.306115737
0.2958,-0.319929419,-0.306115737
0.296,-0.389103347,-0.306115737
0.2962,-0.45611559,-0.306115737
0.2964,-0.45611559,-0.306115737
0.2966,-0.45611559,-0.306115737
0.2968,-0.45611559,-0.306115737
0.297,-0.559876483,-0.306115737
0.2972,-0.629050411,-0.306115737
0.2974,-0.629050411,-0.306115737
0.2976,-0.629050411,-0.306115737
0.2978,-0.629050411,-0.306115737
0.298,-0.663637375,-0.306115737
0.2982,-0.732811303,-0.306115737
0.2984,-0.801985232,-0.306115737
0.2986,-0.801985232,-0.306115737
0.2988,-0.767398268,-0.306115737
0.299,-0.801985232,-0.306115737
0.2992,-0.834410511,-0.306115737
0.2994,-0.903584439,-0.306115737
0.2996,-0.903584439,-0.306115737
0.2998,-0.868997475,-0.306115737
0.3,-0.868997475,-0.306115737
0.3002,-0.868997475,-0.306115737
0.3004,-0.903584439,-0.306115737
0.3006,-0.903584439,-0.306115737
0.3008,-0.938171403,-0.306115737
0.301,-0.903584439,-0.306115737
0.3012,-0.868997475,-0.306115737
0.3014,-0.938171403,-0.306115737
0.3016,-0.938171403,-0.306115737
0.3018,-0.938171403,-0.306115737
0.302,-0.903584439,-0.306115737
0.3022,-0.868997475,-0.306115737
0.3024,-0.903584439,-0.306115737
0.3026,-0.938171403,-0.306115737
0.3028,-0.938171403,-0.306115737
0.303,-0.903584439,-0.306115737
0.3032,-0.868997475,-0.306115737
0.3034,-0.868997475,-0.306115737
0.3036,-0.868997475,-0.306115737
0.3038,-0.903584439,-0.306115737
0.304,-0.868997475,-0.306115737
0.3042,-0.834410511,-0.306115737
0.3044,-0.767398268,-0.306115737
0.3046,-0.767398268,-0.306115737
0.3048,-0.767398268,-0.306115737
0.305,-0.767398268,-0.306115737
0.3052,-0.732811303,-0.306115737
0.3054,-0.663637375,-0.306115737
0.3056,-0.629050411,-0.306115737
0.3058,-0.629050411,-0.306115737
0.306,-0.629050411,-0.306115737
0.3062,-0.663637375,-0.306115737
0.3064,-0.559876483,-0.306115737
0.3066,-0.45611559,-0.306115737
0.3068,-0.45611559,-0.306115737
0.307,-0.423690311,-0.306115737
0.3072,-0.423690311,-0.306115737
0.3074,-0.389103347,-0.306115737
0.3076,-0.319929419,-0.306115737
0.3078,-0.285342454,-0.306115737
0.308,-0.285342454,-0.306115737
0.3082,-0.285342454,-0.306115737
0.3084,-0.216168526,-0.306115737
0.3086,-0.181581562,-0.306115737
0.3088,-0.112407634,-0.306115737
0.309,-0.077820669,-0.306115737
0.3092,-0.077820669,-0.306115737
0.3094,-0.077820669,-0.306115737
0.3096,-0.04539539,-0.306115737
0.3098,0.023778538,-0.306115737
0.31,0.092952466,-0.306115737
0.3102,0.12753943,-0.306115737
0.3104,0.092952466,-0.306115737
0.3106,0.162126395,-0.306115737
0.3108,0.196713359,-0.306115737
0.311,0.231300323,-0.306115737
0.3112,0.300474251,-0.306115737
0.3114,0.33289953,-0.306115737
0.3116,0.33289953,-0.306115737
0.3118,0.367486494,-0.306115737
0.312,0.471247387,-0.306115737
0.3122,0.505834351,-0.306115737
0.3124,0.540421315,-0.306115737
0.3126,0.540421315,-0.306115737
0.3128,0.540421315,-0.306115737
0.313,0.609595244,-0.306115737
0.3132,0.711194451,-0.306115737
0.3134,0.711194451,-0.306115737
0.3136,0.745781415,-0.306115737
0.3138,0.711194451,-0.306115737
0.314,0.780368379,-0.306115737
0.3142,0.884129272,-0.306115737
0.3144,0.918716236,-0.306115737
0.3146,0.918716236,-0.306115737
0.3148,0.884129272,-0.306115737
0.315,0.884129272,-0.306115737
0.3152,0.884129272,-0.306115737
0.3154,0.918716236,-0.306115737
0.3156,0.9533032,-0.306115737
0.3158,0.884129272,-0.306115737
0.316,0.884129272,-0.306115737
0.3162,0.918716236,-0.306115737
0.3164,0.918716236,-0.306115737
0.3166,0.987890164,-0.306115737
0.3168,0.918716236,-0.306115737
0.317,0.884129272,-0.306115737
0.3172,0.918716236,-0.306115737
0.3174,0.918716236,-0.306115737
0.3176,0.918716236,-0.306115737
0.3178,0.987890164,-0.306115737
0.318,0.918716236,-0.306115737
0.3182,0.884129272,-0.306115737
0.3184,0.884129272,-0.306115737
0.3186,0.9533032,-0.306115737
0.3188,0.918716236,-0.306115737
0.319,0.884129272,-0.306115737
0.3192,0.849542308,-0.306115737
0.3194,0.780368379,-0.306115737
0.3196,0.849542308,-0.306115737
0.3198,0.849542308,-0.306115737
0.32,0.849542308,-0.306115737
0.3202,0.780368379,-0.306115737
0.3204,0.678769172,-0.306115737
0.3206,0.644182208,-0.306115737
0.3208,0.644182208,-0.306115737
0.321,0.644182208,-0.306115737
0.3212,0.609595244,-0.306115737
0.3214,0.540421315,-0.306115737
0.3216,0.505834351,-0.306115737
0.3218,0.505834351,-0.306115737
0.322,0.505834351,-0.306115737
0.3222,0.505834351,-0.306115737
0.3224,0.402073459,-0.306115737
0.3226,0.33289953,-0.306115737
0.3228,0.33289953,-0.306115737
0.323,0.265887287,-0.306115737
0.3232,0.265887287,-0.306115737
0.3234,0.231300323,-0.306115737
0.3236,0.162126395,-0.306115737
0.3238,0.092952466,-0.306115737
0.324,0.092952466,-0.306115737
0.3242,0.092952466,-0.306115737
0.3244,0.058365502,-0.306115737
0.3246,-0.04539539,-0.306115737
0.3248,-0.077820669,-0.306115737
0.325,-0.077820669,-0.306115737
0.3252,-0.112407634,-0.306115737
0.3254,-0.112407634,-0.306115737
0.3256,-0.112407634,-0.306115737
0.3258,-0.216168526,-0.306115737
0.326,-0.285342454,-0.306115737
0.3262,-0.285342454,-0.306115737
0.3264,-0.285342454,-0.306115737
0.3266,-0.319929419,-0.306115737
0.3268,-0.319929419,-0.306115737
0.327,-0.389103347,-0.306115737
0.3272,-0.45611559,-0.306115737
0.3274,-0.423690311,-0.306115737
0.3276,-0.389103347,-0.306115737
0.3278,-0.45611559,-0.306115737
0.328,-0.525289518,-0.306115737
0.3282,-0.559876483,-0.306115737
0.3284,-0.594463447,-0.306115737
0.3286,-0.559876483,-0.306115737
0.3288,-0.559876483,-0.306115737
0.329,-0.594463447,-0.306115737
0.3292,-0.663637375,-0.306115737
0.3294,-0.663637375,-0.306115737
0.3296,-0.663637375,-0.306115737
0.3298,-0.594463447,-0.306115737
0.33,-0.663637375,-0.306115737
0.3302,-0.732811303,-0.306115737
0.3304,-0.732811303,-0.306115737
0.3306,-0.732811303,-0.306115737
0.3308,-0.698224339,-0.306115737
0.331,-0.663637375,-0.306115737
0.3312,-0.698224339,-0.306115737
0.3314,-0.767398268,-0.306115737
0.3316,-0.767398268,-0.306115737
0.3318,-0.732811303,-0.306115737
0.332,-0.732811303,-0.306115737
0.3322,-0.698224339,-0.306115737
0.3324,-0.732811303,-0.306115737
0.3326,-0.767398268,-0.306115737
0.3328,-0.732811303,-0.306115737
0.333,-0.698224339,-0.306115737
0.3332,-0.663637375,-0.306115737
0.3334,-0.698224339,-0.306115737
0.3336,-0.732811303,-0.306115737
0.3338,-0.732811303,-0.306115737
0.334,-0.698224339,-0.306115737
0.3342,-0.629050411,-0.306115737
0.3344,-0.629050411,-0.306115737
0.3346,-0.663637375,-0.306115737
0.3348,-0.663637375,-0.306115737
0.335,-0.663637375,-0.306115737
0.3352,-0.594463447,-0.306115737
0.3354,-0.594463447,-0.306115737
0.3356,-0.594463447,-0.306115737
0.3358,-0.594463447,-0.306115737
0.336,-0.594463447,-0.306115737
0.3362,-0.559876483,-0.306115737
0.3364,-0.490702554,-0.306115737
0.3366,-0.490702554,-0.306115737
0.3368,-0.559876483,-0.306115737
0.337,-0.559876483,-0.306115737
0.3372,-0.490702554,-0.306115737
0.3374,-0.45611559,-0.306115737
0.3376,-0.423690311,-0.306115737
0.3378,-0.389103347,-0.306115737
0.338,-0.423690311,-0.306115737
0.3382,-0.354516383,-0.306115737
0.3384,-0.354516383,-0.306115737
0.3386,-0.285342454,-0.306115737
0.3388,-0.25075549,-0.306115737
0.339,-0.319929419,-0.306115737
0.3392,-0.285342454,-0.306115737
0.3394,-0.25075549,-0.306115737
0.3396,-0.181581562,-0.306115737
0.3398,-0.146994598,-0.306115737
0.34,-0.112407634,-0.306115737
0.3402,-0.181581562,-0.306115737
0.3404,-0.146994598,-0.306115737
0.3406,-0.077820669,-0.306115737
0.3408,-0.04539539,-0.306115737
0.341,-0.04539539,-0.306115737
0.3412,-0.04539539,-0.306115737
0.3414,-0.04539539,-0.306115737
0.3416,-0.04539539,-0.306115737
0.3418,0.058365502,-0.306115737
0.342,0.092952466,-0.306115737
0.3422,0.092952466,-0.306115737
0.3424,0.092952466,-0.306115737
0.3426,0.092952466,-0.306115737
0.3428,0.092952466,-0.306115737
0.343,0.196713359,-0.306115737
0.3432,0.196713359,-0.306115737
0.3434,0.162126395,-0.306115737
0.3436,0.162126395,-0.306115737
0.3438,0.196713359,-0.306115737
0.344,0.231300323,-0.306115737
0.3442,0.265887287,-0.306115737
0.3444,0.231300323,-0.306115737
0.3446,0.231300323,-0.306115737
0.3448,0.265887287,-0.306115737
0.345,0.300474251,-0.306115737
0.3452,0.367486494,-0.306115737
0.3454,0.367486494,-0.306115737
0.3456,0.367486494,-0.306115737
0.3458,0.33289953,-0.306115737
0.346,0.367486494,-0.306115737
0.3462,0.402073459,-0.306115737
0.3464,0.436660423,-0.306115737
0.3466,0.436660423,-0.306115737
0.3468,0.402073459,-0.306115737
0.347,0.402073459,-0.306115737
0.3472,0.471247387,-0.306115737
0.3474,0.505834351,-0.306115737
0.3476,0.505834351,-0.306115737
0.3478,0.505834351,-0.306115737
0.348,0.505834351,-0.306115737
0.3482,0.505834351,-0.306115737
0.3484,0.505834351,-0.306115737
0.3486,0.505834351,-0.306115737
0.3488,0.540421315,-0.306115737
0.349,0.540421315,-0.306115737
0.3492,0.540421315,-0.306115737
0.3494,0.540421315,-0.306115737
0.3496,0.609595244,-0.306115737
0.3498,0.575008279,-0.306115737
0.35,0.575008279,-0.306115737
0.3502,0.575008279,-0.306115737
0.3504,0.575008279,-0.306115737
0.3506,0.644182208,-0.306115737
0.3508,0.644182208,-0.306115737
0.351,0.644182208,-0.306115737
0.3512,0.609595244,-0.306115737
0.3514,0.575008279,-0.306115737
0.3516,0.609595244,-0.306115737
0.3518,0.609595244,-0.306115737
0.352,0.609595244,-0.306115737
0.3522,0.609595244,-0.306115737
0.3524,0.575008279,-0.306115737
0.3526,0.609595244,-0.306115737
0.3528,0.609595244,-0.306115737
0.353,0.609595244,-0.306115737
0.3532,0.609595244,-0.306115737
0.3534,0.575008279,-0.306115737
0.3536,0.540421315,-0.306115737
0.3538,0.575008279,-0.306115737
0.354,0.575008279,-0.306115737
0.3542,0.540421315,-0.306115737
0.3544,0.505834351,-0.306115737
0.3546,0.471247387,-0.306115737
0.3548,0.471247387,-0.306115737
0.355,0.505834351,-0.306115737
0.3552,0.471247387,-0.306115737
0.3554,0.471247387,-0.306115737
0.3556,0.436660423,-0.306115737
0.3558,0.367486494,-0.306115737
0.356,0.367486494,-0.306115737
0.3562,0.367486494,-0.306115737
0.3564,0.33289953,-0.306115737
0.3566,0.265887287,-0.306115737
0.3568,0.265887287,-0.306115737
0.357,0.231300323,-0.306115737
0.3572,0.231300323,-0.306115737
0.3574,0.231300323,-0.306115737
0.3576,0.196713359,-0.306115737
0.3578,0.12753943,-0.306115737
0.358,0.092952466,-0.306115737
0.3582,0.092952466,-0.306115737
0.3584,0.092952466,-0.306115737
0.3586,0.058365502,-0.306115737
0.3588,0.023778538,-0.306115737
0.359,-0.04539539,-0.306115737
0.3592,-0.077820669,-0.306115737
0.3594,-0.077820669,-0.306115737
0.3596,-0.112407634,-0.306115737
0.3598,-0.112407634,-0.306115737
0.36,-0.181581562,-0.306115737
0.3602,-0.216168526,-0.306115737
0.3604,-0.216168526,-0.306115737
0.3606,-0.181581562,-0.306115737
0.3608,-0.25075549,-0.306115737
0.361,-0.285342454,-0.306115737
0.3612,-0.319929419,-0.306115737
0.3614,-0.389103347,-0.306115737
0.3616,-0.354516383,-0.306115737
0.3618,-0.354516383,-0.306115737
0.362,-0.423690311,-0.306115737
0.3622,-0.45611559,-0.306115737
0.3624,-0.490702554,-0.306115737
0.3626,-0.525289518,-0.306115737
0.3628,-0.490702554,-0.306115737
0.363,-0.525289518,-0.306115737
0.3632,-0.594463447,-0.306115737
0.3634,-0.594463447,-0.306115737
0.3636,-0.629050411,-0.306115737
0.3638,-0.629050411,-0.306115737
0.364,-0.629050411,-0.306115737
0.3642,-0.663637375,-0.306115737
0.3644,-0.732811303,-0.306115737
0.3646,-0.732811303,-0.306115737
0.3648,-0.732811303,-0.306115737
0.365,-0.732811303,-0.306115737
0.3652,-0.732811303,-0.306115737
0.3654,-0.732811303,-0.306115737
0.3656,-0.767398268,-0.306115737
0.3658,-0.767398268,-0.306115737
0.366,-0.732811303,-0.306115737
0.3662,-0.732811303,-0.306115737
0.3664,-0.732811303,-0.306115737
0.3666,-0.732811303,-0.306115737
0.3668,-0.767398268,-0.306115737
0.367,-0.698224339,-0.306115737
0.3672,-0.629050411,-0.306115737
0.3674,-0.698224339,-0.306115737
0.3676,-0.663637375,-0.306115737
0.3678,-0.698224339,-0.306115737
0.368,-0.698224339,-0.306115737
0.3682,-0.629050411,-0.306115737
0.3684,-0.594463447,-0.306115737
0.3686,-0.629050411,-0.306115737
0.3688,-0.594463447,-0.306115737
0.369,-0.629050411,-0.306115737
0.3692,-0.594463447,-0.306115737
0.3694,-0.559876483,-0.306115737
0.3696,-0.525289518,-0.306115737
0.3698,-0.525289518,-0.306115737
0.37,-0.559876483,-0.306115737
0.3702,-0.45611559,-0.306115737
0.3704,-0.45611559,-0.306115737
0.3706,-0.389103347,-0.306115737
0.3708,-0.354516383,-0.306115737
0.371,-0.389103347,-0.306115737
0.3712,-0.354516383,-0.306115737
0.3714,-0.319929419,-0.306115737
0.3716,-0.285342454,-0.306115737
0.3718,-0.216168526,-0.306115737
0.372,-0.216168526,-0.306115737
0.3722,-0.181581562,-0.306115737
0.3724,-0.181581562,-0.306115737
0.3726,-0.112407634,-0.306115737
0.3728,-0.112407634,-0.306115737
0.373,-0.077820669,-0.306115737
0.3732,-0.077820669,-0.306115737
0.3734,-0.077820669,-0.306115737
0.3736,-0.04539539,-0.306115737
0.3738,0.023778538,-0.306115737
0.374,0.023778538,-0.306115737
0.3742,0.058365502,-0.306115737
0.3744,0.058365502,-0.306115737
0.3746,0.058365502,-0.306115737
0.3748,0.092952466,-0.306115737
0.375,0.162126395,-0.306115737
0.3752,0.162126395,-0.306115737
0.3754,0.162126395,-0.306115737
0.3756,0.196713359,-0.306115737
0.3758,0.196713359,-0.306115737
0.376,0.265887287,-0.306115737
0.3762,0.300474251,-0.306115737
0.3764,0.300474251,-0.306115737
0.3766,0.265887287,-0.306115737
0.3768,0.300474251,-0.306115737
0.377,0.33289953,-0.306115737
0.3772,0.367486494,-0.306115737
0.3774,0.367486494,-0.306115737
0.3776,0.367486494,-0.306115737
0.3778,0.402073459,-0.306115737
0.378,0.436660423,-0.306115737
0.3782,0.436660423,-0.306115737
0.3784,0.505834351,-0.306115737
0.3786,0.471247387,-0.306115737
0.3788,0.436660423,-0.306115737
0.379,0.471247387,-0.306115737
0.3792,0.505834351,-0.306115737
0.3794,0.505834351,-0.306115737
0.3796,0.505834351,-0.306115737
0.3798,0.505834351,-0.306115737
0.38,0.471247387,-0.306115737
0.3802,0.505834351,-0.306115737
0.3804,0.505834351,-0.306115737
0.3806,0.540421315,-0.306115737
0.3808,0.505834351,-0.306115737
0.381,0.471247387,-0.306115737
0.3812,0.471247387,-0.306115737
0.3814,0.505834351,-0.306115737
0.3816,0.505834351,-0.306115737
0.3818,0.505834351,-0.306115737
0.382,0.505834351,-0.306115737
0.3822,0.471247387,-0.306115737
0.3824,0.471247387,-0.306115737
0.3826,0.471247387,-0.306115737
0.3828,0.505834351,-0.306115737
0.383,0.436660423,-0.306115737
0.3832,0.436660423,-0.306115737
0.3834,0.436660423,-0.306115737
0.3836,0.367486494,-0.306115737
0.3838,0.402073459,-0.306115737
0.384,0.402073459,-0.306115737
0.3842,0.367486494,-0.306115737
0.3844,0.33289953,-0.306115737
0.3846,0.33289953,-0.306115737
0.3848,0.367486494,-0.306115737
0.385,0.367486494,-0.306115737
0.3852,0.367486494,-0.306115737
0.3854,0.33289953,-0.306115737
0.3856,0.300474251,-0.306115737
0.3858,0.33289953,-0.306115737
0.386,0.33289953,-0.306115737
0.3862,0.33289953,-0.306115737
0.3864,0.300474251,-0.306115737
0.3866,0.265887287,-0.306115737
0.3868,0.231300323,-0.306115737
0.387,0.231300323,-0.306115737
0.3872,0.231300323,-0.306115737
0.3874,0.231300323,-0.306115737
0.3876,0.196713359,-0.306115737
0.3878,0.196713359,-0.306115737
0.388,0.196713359,-0.306115737
0.3882,0.196713359,-0.306115737
0.3884,0.196713359,-0.306115737
0.3886,0.162126395,-0.306115737
0.3888,0.162126395,-0.306115737
0.389,0.092952466,-0.306115737
0.3892,0.12753943,-0.306115737
0.3894,0.162126395,-0.306115737
0.3896,0.092952466,-0.306115737
0.3898,0.092952466,-0.306115737
0.39,0.092952466,-0.306115737
0.3902,0.058365502,-0.306115737
0.3904,0.092952466,-0.306115737
0.3906,0.058365502,-0.306115737
0.3908,0.023778538,-0.306115737
0.391,-0.010808426,-0.306115737
0.3912,0.023778538,-0.306115737
0.3914,-0.010808426,-0.306115737
0.3916,-0.010808426,-0.306115737
0.3918,-0.010808426,-0.306115737
0.392,-0.077820669,-0.306115737
0.3922,-0.077820669,-0.306115737
0.3924,-0.077820669,-0.306115737
0.3926,-0.112407634,-0.306115737
0.3928,-0.077820669,-0.306115737
0.393,-0.112407634,-0.306115737
0.3932,-0.181581562,-0.306115737
0.3934,-0.181581562,-0.306115737
0.3936,-0.181581562,-0.306115737
0.3938,-0.181581562,-0.306115737
0.394,-0.216168526,-0.306115737
0.3942,-0.25075549,-0.306115737
0.3944,-0.285342454,-0.306115737
0.3946,-0.25075549,-0.306115737
0.3948,-0.285342454,-0.306115737
0.395,-0.285342454,-0.306115737
0.3952,-0.319929419,-0.306115737
0.3954,-0.319929419,-0.306115737
0.3956,-0.319929419,-0.306115737
0.3958,-0.319929419,-0.306115737
0.396,-0.319929419,-0.306115737
0.3962,-0.319929419,-0.306115737
0.3964,-0.389103347,-0.306115737
0.3966,-0.354516383,-0.306115737
0.3968,-0.389103347,-0.306115737
0.397,-0.389103347,-0.306115737
0.3972,-0.389103347,-0.306115737
0.3974,-0.423690311,-0.306115737
0.3976,-0.45611559,-0.306115737
0.3978,-0.45611559,-0.306115737
0.398,-0.45611559,-0.306115737
0.3982,-0.45611559,-0.306115737
0.3984,-0.45611559,-0.306115737
0.3986,-0.490702554,-0.306115737
0.3988,-0.559876483,-0.306115737
0.399,-0.490702554,-0.306115737
0.3992,-0.490702554,-0.306115737
0.3994,-0.490702554,-0.306115737
0.3996,-0.490702554,-0.306115737
0.3998,-0.525289518,-0.306115737
0.4,-0.559876483,-0.306115737
0.4002,-0.490702554,-0.306115737
0.4004,-0.490702554,-0.306115737
0.4006,-0.525289518,-0.306115737
0.4008,-0.559876483,-0.306115737
0.401,-0.559876483,-0.306115737
0.4012,-0.490702554,-0.306115737
0.4014,-0.45611559,-0.306115737
0.4016,-0.490702554,-0.306115737
0.4018,-0.490702554,-0.306115737
0.402,-0.525289518,-0.306115737
0.4022,-0.490702554,-0.306115737
0.4024,-0.45611559,-0.306115737
0.4026,-0.45611559,-0.306115737
0.4028,-0.423690311,-0.306115737
0.403,-0.45611559,-0.306115737
0.4032,-0.423690311,-0.306115737
0.4034,-0.389103347,-0.306115737
0.4036,-0.389103347,-0.306115737
0.4038,-0.354516383,-0.306115737
0.404,-0.319929419,-0.306115737
0.4042,-0.319929419,-0.306115737
0.4044,-0.319929419,-0.306115737
0.4046,-0.285342454,-0.306115737
0.4048,-0.25075549,-0.306115737
0.405,-0.216168526,-0.306115737
0.4052,-0.216168526,-0.306115737
0.4054,-0.25075549,-0.306115737
0.4056,-0.181581562,-0.306115737
0.4058,-0.112407634,-0.306115737
0.406,-0.112407634,-0.306115737
0.4062,-0.077820669,-0.306115737
0.4064,-0.077820669,-0.306115737
0.4066,-0.077820669,-0.306115737
0.4068,-0.010808426,-0.306115737
0.407,0.058365502,-0.306115737
0.4072,0.058365502,-0.306115737
0.4074,0.058365502,-0.306115737
0.4076,0.092952466,-0.306115737
0.4078,0.092952466,-0.306115737
0.408,0.162126395,-0.306115737
0.4082,0.196713359,-0.306115737
0.4084,0.196713359,-0.306115737
0.4086,0.196713359,-0.306115737
0.4088,0.231300323,-0.306115737
0.409,0.231300323,-0.306115737
0.4092,0.300474251,-0.306115737
0.4094,0.33289953,-0.306115737
0.4096,0.300474251,-0.306115737
0.4098,0.33289953,-0.306115737
0.41,0.33289953,-0.306115737
0.4102,0.367486494,-0.306115737
0.4104,0.436660423,-0.306115737
0.4106,0.436660423,-0.306115737
0.4108,0.402073459,-0.306115737
0.411,0.471247387,-0.306115737
0.4112,0.505834351,-0.306115737
0.4114,0.471247387,-0.306115737
0.4116,0.505834351,-0.306115737
0.4118,0.505834351,-0.306115737
0.412,0.505834351,-0.306115737
0.4122,0.505834351,-0.306115737
0.4124,0.540421315,-0.306115737
0.4126,0.505834351,-0.306115737
0.4128,0.540421315,-0.306115737
0.413,0.540421315,-0.306115737
0.4132,0.505834351,-0.306115737
0.4134,0.540421315,-0.306115737
0.4136,0.540421315,-0.306115737
0.4138,0.505834351,-0.306115737
0.414,0.540421315,-0.306115737
0.4142,0.505834351,-0.306115737
0.4144,0.505834351,-0.306115737
0.4146,0.540421315,-0.306115737
0.4148,0.505834351,-0.306115737
0.415,0.471247387,-0.306115737
0.4152,0.471247387,-0.306115737
0.4154,0.471247387,-0.306115737
0.4156,0.436660423,-0.306115737
0.4158,0.471247387,-0.306115737
0.416,0.471247387,-0.306115737
0.4162,0.367486494,-0.306115737
0.4164,0.367486494,-0.306115737
0.4166,0.33289953,-0.306115737
0.4168,0.33289953,-0.306115737
0.417,0.33289953,-0.306115737
0.4172,0.33289953,-0.306115737
0.4174,0.265887287,-0.306115737
0.4176,0.265887287,-0.306115737
0.4178,0.265887287,-0.306115737
0.418,0.265887287,-0.306115737
0.4182,0.265887287,-0.306115737
0.4184,0.196713359,-0.306115737
0.4186,0.162126395,-0.306115737
0.4188,0.162126395,-0.306115737
0.419,0.162126395,-0.306115737
0.4192,0.162126395,-0.306115737
0.4194,0.12753943,-0.306115737
0.4196,0.092952466,-0.306115737
0.4198,0.058365502,-0.306115737
0.42,0.058365502,-0.306115737
0.4202,0.058365502,-0.306115737
0.4204,0.023778538,-0.306115737
0.4206,-0.010808426,-0.306115737
0.4208,-0.04539539,-0.306115737
0.421,-0.04539539,-0.306115737
0.4212,-0.04539539,-0.306115737
0.4214,-0.04539539,-0.306115737
0.4216,-0.112407634,-0.306115737
0.4218,-0.146994598,-0.306115737
0.422,-0.112407634,-0.306115737
0.4222,-0.181581562,-0.306115737
0.4224,-0.146994598,-0.306115737
0.4226,-0.216168526,-0.306115737
0.4228,-0.181581562,-0.306115737
0.423,-0.216168526,-0.306115737
0.4232,-0.216168526,-0.306115737
0.4234,-0.25075549,-0.306115737
0.4236,-0.216168526,-0.306115737
0.4238,-0.25075549,-0.306115737
0.424,-0.319929419,-0.306115737
0.4242,-0.285342454,-0.306115737
0.4244,-0.285342454,-0.306115737
0.4246,-0.285342454,-0.306115737
0.4248,-0.285342454,-0.306115737
0.425,-0.319929419,-0.306115737
0.4252,-0.319929419,-0.306115737
0.4254,-0.319929419,-0.306115737
0.4256,-0.319929419,-0.306115737
0.4258,-0.319929419,-0.306115737
0.426,-0.319929419,-0.306115737
0.4262,-0.319929419,-0.306115737
0.4264,-0.354516383,-0.306115737
0.4266,-0.319929419,-0.306115737
0.4268,-0.319929419,-0.306115737
0.427,-0.319929419,-0.306115737
0.4272,-0.319929419,-0.306115737
0.4274,-0.319929419,-0.306115737
0.4276,-0.319929419,-0.306115737
0.4278,-0.319929419,-0.306115737
0.428,-0.285342454,-0.306115737
0.4282,-0.319929419,-0.306115737
0.4284,-0.319929419,-0.306115737
0.4286,-0.319929419,-0.306115737
0.4288,-0.319929419,-0.306115737
0.429,-0.285342454,-0.306115737
0.4292,-0.285342454,-0.306115737
0.4294,-0.285342454,-0.306115737
0.4296,-0.285342454,-0.306115737
0.4298,-0.285342454,-0.306115737
0.43,-0.285342454,-0.306115737
0.4302,-0.285342454,-0.306115737
0.4304,-0.25075549,-0.306115737
0.4306,-0.285342454,-0.306115737
0.4308,-0.285342454,-0.306115737
0.431,-0.25075549,-0.306115737
0.4312,-0.25075549,-0.306115737
0.4314,-0.216168526,-0.306115737
0.4316,-0.216168526,-0.306115737
0.4318,-0.25075549,-0.306115737
0.432,-0.216168526,-0.306115737
0.4322,-0.216168526,-0.306115737
0.4324,-0.216168526,-0.306115737
0.4326,-0.216168526,-0.306115737
0.4328,-0.216168526,-0.306115737
0.433,-0.216168526,-0.306115737
0.4332,-0.216168526,-0.306115737
0.4334,-0.181581562,-0.306115737
0.4336,-0.181581562,-0.306115737
0.4338,-0.181581562,-0.306115737
0.434,-0.181581562,-0.306115737
0.4342,-0.181581562,-0.306115737
0.4344,-0.146994598,-0.306115737
0.4346,-0.112407634,-0.306115737
0.4348,-0.146994598,-0.306115737
0.435,-0.146994598,-0.306115737
0.4352,-0.112407634,-0.306115737
0.4354,-0.112407634,-0.306115737
0.4356,-0.077820669,-0.306115737
0.4358,-0.077820669,-0.306115737
0.436,-0.077820669,-0.306115737
0.4362,-0.077820669,-0.306115737
0.4364,-0.112407634,-0.306115737
0.4366,-0.077820669,-0.306115737
0.4368,-0.04539539,-0.306115737
0.437,-0.077820669,-0.306115737
0.4372,-0.077820669,-0.306115737
0.4374,-0.077820669,-0.306115737
0.4376,-0.04539539,-0.306115737
0.4378,-0.04539539,-0.306115737
0.438,-0.010808426,-0.306115737
0.4382,-0.04539539,-0.306115737
0.4384,-0.04539539,-0.306115737
0.4386,-0.010808426,-0.306115737
0.4388,-0.010808426,-0.306115737
0.439,0.023778538,-0.306115737
0.4392,0.023778538,-0.306115737
0.4394,-0.010808426,-0.306115737
0.4396,-0.010808426,-0.306115737
0.4398,0.058365502,-0.306115737
0.44,0.058365502,-0.306115737
0.4402,0.058365502,-0.306115737
0.4404,0.092952466,-0.306115737
0.4406,0.058365502,-0.306115737
0.4408,0.058365502,-0.306115737
0.441,0.092952466,-0.306115737
0.4412,0.12753943,-0.306115737
0.4414,0.092952466,-0.306115737
0.4416,0.092952466,-0.306115737
0.4418,0.12753943,-0.306115737
0.442,0.162126395,-0.306115737
0.4422,0.162126395,-0.306115737
0.4424,0.196713359,-0.306115737
0.4426,0.196713359,-0.306115737
0.4428,0.196713359,-0.306115737
0.443,0.196713359,-0.306115737
0.4432,0.231300323,-0.306115737
0.4434,0.265887287,-0.306115737
0.4436,0.231300323,-0.306115737
0.4438,0.231300323,-0.306115737
0.444,0.265887287,-0.306115737
0.4442,0.300474251,-0.306115737
0.4444,0.265887287,-0.306115737
0.4446,0.33289953,-0.306115737
0.4448,0.33289953,-0.306115737
0.445,0.300474251,-0.306115737
0.4452,0.33289953,-0.306115737
0.4454,0.33289953,-0.306115737
0.4456,0.33289953,-0.306115737
0.4458,0.367486494,-0.306115737
0.446,0.367486494,-0.306115737
0.4462,0.33289953,-0.306115737
0.4464,0.367486494,-0.306115737
0.4466,0.367486494,-0.306115737
0.4468,0.402073459,-0.306115737
0.447,0.402073459,-0.306115737
0.4472,0.367486494,-0.306115737
0.4474,0.367486494,-0.306115737
0.4476,0.367486494,-0.306115737
0.4478,0.402073459,-0.306115737
0.448,0.367486494,-0.306115737
0.4482,0.402073459,-0.306115737
0.4484,0.367486494,-0.306115737
0.4486,0.367486494,-0.306115737
0.4488,0.367486494,-0.306115737
0.449,0.367486494,-0.306115737
0.4492,0.367486494,-0.306115737
0.4494,0.367486494,-0.306115737
0.4496,0.33289953,-0.306115737
0.4498,0.33289953,-0.306115737
0.45,0.33289953,-0.306115737
0.4502,0.33289953,-0.306115737
0.4504,0.300474251,-0.306115737
0.4506,0.231300323,-0.306115737
0.4508,0.265887287,-0.306115737
0.451,0.265887287,-0.306115737
0.4512,0.231300323,-0.306115737
0.4514,0.231300323,-0.306115737
0.4516,0.162126395,-0.306115737
0.4518,0.162126395,-0.306115737
0.452,0.162126395,-0.306115737
0.4522,0.162126395,-0.306115737
0.4524,0.092952466,-0.306115737
0.4526,0.092952466,-0.306115737
0.4528,0.092952466,-0.306115737
0.453,0.058365502,-0.306115737
0.4532,0.058365502,-0.306115737
0.4534,0.058365502,-0.306115737
0.4536,-0.010808426,-0.306115737
0.4538,-0.04539539,-0.306115737
0.454,-0.04539539,-0.306115737
0.4542,-0.04539539,-0.306115737
0.4544,-0.077820669,-0.306115737
0.4546,-0.04539539,-0.306115737
0.4548,-0.112407634,-0.306115737
0.455,-0.146994598,-0.306115737
0.4552,-0.112407634,-0.306115737
0.4554,-0.181581562,-0.306115737
0.4556,-0.146994598,-0.306115737
0.4558,-0.181581562,-0.306115737
0.456,-0.216168526,-0.306115737
0.4562,-0.216168526,-0.306115737
0.4564,-0.25075549,-0.306115737
0.4566,-0.25075549,-0.306115737
0.4568,-0.285342454,-0.306115737
0.457,-0.319929419,-0.306115737
0.4572,-0.319929419,-0.306115737
0.4574,-0.319929419,-0.306115737
0.4576,-0.319929419,-0.306115737
0.4578,-0.319929419,-0.306115737
0.458,-0.354516383,-0.306115737
0.4582,-0.389103347,-0.306115737
0.4584,-0.389103347,-0.306115737
0.4586,-0.389103347,-0.306115737
0.4588,-0.389103347,-0.306115737
0.459,-0.423690311,-0.306115737
0.4592,-0.423690311,-0.306115737
0.4594,-0.45611559,-0.306115737
0.4596,-0.45611559,-0.306115737
0.4598,-0.423690311,-0.306115737
0.46,-0.45611559,-0.306115737
0.4602,-0.45611559,-0.306115737
0.4604,-0.45611559,-0.306115737
0.4606,-0.45611559,-0.306115737
0.4608,-0.45611559,-0.306115737
0.461,-0.423690311,-0.306115737
0.4612,-0.45611559,-0.306115737
0.4614,-0.45611559,-0.306115737
0.4616,-0.45611559,-0.306115737
0.4618,-0.423690311,-0.306115737
0.462,-0.423690311,-0.306115737
0.4622,-0.389103347,-0.306115737
0.4624,-0.389103347,-0.306115737
0.4626,-0.389103347,-0.306115737
0.4628,-0.389103347,-0.306115737
0.463,-0.354516383,-0.306115737
0.4632,-0.354516383,-0.306115737
0.4634,-0.319929419,-0.306115737
0.4636,-0.319929419,-0.306115737
0.4638,-0.319929419,-0.306115737
0.464,-0.285342454,-0.306115737
0.4642,-0.285342454,-0.306115737
0.4644,-0.285342454,-0.306115737
0.4646,-0.216168526,-0.306115737
0.4648,-0.25075549,-0.306115737
0.465,-0.25075549,-0.306115737
0.4652,-0.181581562,-0.306115737
0.4654,-0.181581562,-0.306115737
0.4656,-0.181581562,-0.306115737
0.4658,-0.181581562,-0.306115737
0.466,-0.146994598,-0.306115737
0.4662,-0.112407634,-0.306115737
0.4664,-0.077820669,-0.306115737
0.4666,-0.077820669,-0.306115737
0.4668,-0.04539539,-0.306115737
0.467,-0.04539539,-0.306115737
0.4672,-0.077820669,-0.306115737
0.4674,-0.04539539,-0.306115737
0.4676,-0.010808426,-0.306115737
0.4678,0.023778538,-0.306115737
0.468,0.023778538,-0.306115737
0.4682,0.058365502,-0.306115737
0.4684,0.058365502,-0.306115737
0.4686,0.092952466,-0.306115737
0.4688,0.092952466,-0.306115737
0.469,0.12753943,-0.306115737
0.4692,0.092952466,-0.306115737
0.4694,0.092952466,-0.306115737
0.4696,0.12753943,-0.306115737
0.4698,0.162126395,-0.306115737
0.47,0.162126395,-0.306115737
0.4702,0.196713359,-0.306115737
0.4704,0.162126395,-0.306115737
0.4706,0.196713359,-0.306115737
0.4708,0.196713359,-0.306115737
0.471,0.196713359,-0.306115737
0.4712,0.231300323,-0.306115737
0.4714,0.196713359,-0.306115737
0.4716,0.162126395,-0.306115737
0.4718,0.196713359,-0.306115737
0.472,0.231300323,-0.306115737
0.4722,0.231300323,-0.306115737
0.4724,0.231300323,-0.306115737
0.4726,0.231300323,-0.306115737
0.4728,0.231300323,-0.306115737
0.473,0.231300323,-0.306115737
0.4732,0.231300323,-0.306115737
0.4734,0.231300323,-0.306115737
0.4736,0.231300323,-0.306115737
0.4738,0.231300323,-0.306115737
0.474,0.231300323,-0.306115737
0.4742,0.265887287,-0.306115737
0.4744,0.265887287,-0.306115737
0.4746,0.231300323,-0.306115737
0.4748,0.231300323,-0.306115737
0.475,0.231300323,-0.306115737
0.4752,0.231300323,-0.306115737
0.4754,0.265887287,-0.306115737
0.4756,0.231300323,-0.306115737
0.4758,0.231300323,-0.306115737
0.476,0.231300323,-0.306115737
0.4762,0.231300323,-0.306115737
0.4764,0.231300323,-0.306115737
0.4766,0.231300323,-0.306115737
0.4768,0.231300323,-0.306115737
0.477,0.162126395,-0.306115737
0.4772,0.196713359,-0.306115737
0.4774,0.196713359,-0.306115737
0.4776,0.196713359,-0.306115737
0.4778,0.231300323,-0.306115737
0.478,0.196713359,-0.306115737
0.4782,0.12753943,-0.306115737
0.4784,0.196713359,-0.306115737
0.4786,0.162126395,-0.306115737
0.4788,0.162126395,-0.306115737
0.479,0.162126395,-0.306115737
0.4792,0.12753943,-0.306115737
0.4794,0.12753943,-0.306115737
0.4796,0.162126395,-0.306115737
0.4798,0.196713359,-0.306115737
0.48,0.162126395,-0.306115737
0.4802,0.162126395,-0.306115737
0.4804,0.162126395,-0.306115737
0.4806,0.162126395,-0.306115737
0.4808,0.162126395,-0.306115737
0.481,0.162126395,-0.306115737
0.4812,0.092952466,-0.306115737
0.4814,0.12753943,-0.306115737
0.4816,0.092952466,-0.306115737
0.4818,0.092952466,-0.306115737
0.482,0.12753943,-0.306115737
0.4822,0.092952466,-0.306115737
0.4824,0.092952466,-0.306115737
0.4826,0.092952466,-0.306115737
0.4828,0.092952466,-0.306115737
0.483,0.092952466,-0.306115737
0.4832,0.092952466,-0.306115737
0.4834,0.058365502,-0.306115737
0.4836,0.058365502,-0.306115737
0.4838,0.058365502,-0.306115737
0.484,0.058365502,-0.306115737
0.4842,0.023778538,-0.306115737
0.4844,0.058365502,-0.306115737
0.4846,0.058365502,-0.306115737
0.4848,-0.010808426,-0.306115737
0.485,0.058365502,-0.306115737
0.4852,0.058365502,-0.306115737
0.4854,0.023778538,-0.306115737
0.4856,-0.010808426,-0.306115737
0.4858,-0.010808426,-0.306115737
0.486,-0.010808426,-0.306115737
0.4862,0.023778538,-0.306115737
0.4864,0.023778538,-0.306115737
0.4866,-0.010808426,-0.306115737
0.4868,-0.04539539,-0.306115737
0.487,-0.04539539,-0.306115737
0.4872,-0.04539539,-0.306115737
0.4874,-0.04539539,-0.306115737
0.4876,-0.077820669,-0.306115737
0.4878,-0.077820669,-0.306115737
0.488,-0.077820669,-0.306115737
0.4882,-0.077820669,-0.306115737
0.4884,-0.112407634,-0.306115737
0.4886,-0.112407634,-0.306115737
0.4888,-0.112407634,-0.306115737
0.489,-0.146994598,-0.306115737
0.4892,-0.146994598,-0.306115737
0.4894,-0.181581562,-0.306115737
0.4896,-0.181581562,-0.306115737
0.4898,-0.112407634,-0.306115737
0.49,-0.146994598,-0.306115737
0.4902,-0.216168526,-0.306115737
0.4904,-0.216168526,-0.306115737
0.4906,-0.181581562,-0.306115737
0.4908,-0.181581562,-0.306115737
0.491,-0.216168526,-0.306115737
0.4912,-0.25075549,-0.306115737
0.4914,-0.285342454,-0.306115737
0.4916,-0.25075549,-0.306115737
0.4918,-0.25075549,-0.306115737
0.492,-0.25075549,-0.306115737
0.4922,-0.25075549,-0.306115737
0.4924,-0.25075549,-0.306115737
0.4926,-0.285342454,-0.306115737
0.4928,-0.285342454,-0.306115737
0.493,-0.25075549,-0.306115737
0.4932,-0.285342454,-0.306115737
0.4934,-0.25075549,-0.306115737
0.4936,-0.319929419,-0.306115737
0.4938,-0.285342454,-0.306115737
0.494,-0.285342454,-0.306115737
0.4942,-0.25075549,-0.306115737
0.4944,-0.285342454,-0.306115737
0.4946,-0.285342454,-0.306115737
0.4948,-0.285342454,-0.306115737
0.495,-0.285342454,-0.306115737
0.4952,-0.285342454,-0.306115737
0.4954,-0.25075549,-0.306115737
0.4956,-0.285342454,-0.306115737
0.4958,-0.285342454,-0.306115737
0.496,-0.25075549,-0.306115737
0.4962,-0.285342454,-0.306115737
0.4964,-0.216168526,-0.306115737
0.4966,-0.25075549,-0.306115737
0.4968,-0.285342454,-0.306115737
0.497,-0.216168526,-0.306115737
0.4972,-0.25075549,-0.306115737
0.4974,-0.216168526,-0.306115737
0.4976,-0.216168526,-0.306115737
0.4978,-0.216168526,-0.306115737
0.498,-0.216168526,-0.306115737
0.4982,-0.181581562,-0.306115737
0.4984,-0.181581562,-0.306115737
0.4986,-0.181581562,-0.306115737
0.4988,-0.146994598,-0.306115737
0.499,-0.146994598,-0.306115737
0.4992,-0.181581562,-0.306115737
0.4994,-0.112407634,-0.306115737
0.4996,-0.077820669,-0.306115737
0.4998,-0.077820669,-0.306115737
0.5,-0.077820669,-0.306115737
0.5002,-0.077820669,-0.306115737
0.5004,-0.04539539,-0.306115737
0.5006,-0.010808426,-0.306115737
0.5008,-0.010808426,-0.306115737
0.501,-0.010808426,-0.306115737
0.5012,-0.010808426,-0.306115737
0.5014,-0.010808426,-0.306115737
0.5016,0.023778538,-0.306115737
0.5018,0.058365502,-0.306115737
0.502,0.058365502,-0.306115737
0.5022,0.058365502,-0.306115737
0.5024,0.092952466,-0.306115737
0.5026,0.092952466,-0.306115737
0.5028,0.092952466,-0.306115737
0.503,0.12753943,-0.306115737
0.5032,0.12753943,-0.306115737
0.5034,0.092952466,-0.306115737
0.5036,0.162126395,-0.306115737
0.5038,0.162126395,-0.306115737
0.504,0.162126395,-0.306115737
0.5042,0.196713359,-0.306115737
0.5044,0.196713359,-0.306115737
0.5046,0.162126395,-0.306115737
0.5048,0.231300323,-0.306115737
0.505,0.231300323,-0.306115737
0.5052,0.231300323,-0.306115737
0.5054,0.265887287,-0.306115737
0.5056,0.265887287,-0.306115737
0.5058,0.231300323,-0.306115737
0.506,0.265887287,-0.306115737
0.5062,0.300474251,-0.306115737
0.5064,0.265887287,-0.306115737
0.5066,0.265887287,-0.306115737
0.5068,0.231300323,-0.306115737
0.507,0.231300323,-0.306115737
0.5072,0.265887287,-0.306115737
0.5074,0.265887287,-0.306115737
0.5076,0.231300323,-0.306115737
0.5078,0.265887287,-0.306115737
0.508,0.231300323,-0.306115737
0.5082,0.231300323,-0.306115737
0.5084,0.231300323,-0.306115737
0.5086,0.231300323,-0.306115737
0.5088,0.231300323,-0.306115737
0.509,0.231300323,-0.306115737
0.5092,0.231300323,-0.306115737
0.5094,0.231300323,-0.306115737
0.5096,0.231300323,-0.306115737
0.5098,0.231300323,-0.306115737
0.51,0.196713359,-0.306115737
0.5102,0.196713359,-0.306115737
0.5104,0.196713359,-0.306115737
0.5106,0.196713359,-0.306115737
0.5108,0.196713359,-0.306115737
0.511,0.196713359,-0.306115737
0.5112,0.162126395,-0.306115737
0.5114,0.162126395,-0.306115737
0.5116,0.162126395,-0.306115737
0.5118,0.162126395,-0.306115737
0.512,0.162126395,-0.306115737
0.5122,0.12753943,-0.306115737
0.5124,0.092952466,-0.306115737
0.5126,0.092952466,-0.306115737
0.5128,0.12753943,-0.306115737
0.513,0.092952466,-0.306115737
0.5132,0.092952466,-0.306115737
0.5134,0.092952466,-0.306115737
0.5136,0.058365502,-0.306115737
0.5138,0.092952466,-0.306115737
0.514,0.092952466,-0.306115737
0.5142,0.023778538,-0.306115737
0.5144,0.058365502,-0.306115737
0.5146,0.023778538,-0.306115737
0.5148,-0.04539539,-0.306115737
0.515,0.023778538,-0.306115737
0.5152,-0.010808426,-0.306115737
0.5154,-0.04539539,-0.306115737
0.5156,-0.04539539,-0.306115737
0.5158,-0.04539539,-0.306115737
0.516,-0.077820669,-0.306115737
0.5162,-0.04539539,-0.306115737
0.5164,-0.04539539,-0.306115737
0.5166,-0.077820669,-0.306115737
0.5168,-0.077820669,-0.306115737
0.517,-0.077820669,-0.306115737
0.5172,-0.077820669,-0.306115737
0.5174,-0.077820669,-0.306115737
0.5176,-0.112407634,-0.306115737
0.5178,-0.112407634,-0.306115737
0.518,-0.077820669,-0.306115737
0.5182,-0.077820669,-0.306115737
0.5184,-0.112407634,-0.306115737
0.5186,-0.077820669,-0.306115737
0.5188,-0.112407634,-0.306115737
0.519,-0.146994598,-0.306115737
0.5192,-0.112407634,-0.306115737
0.5194,-0.112407634,-0.306115737
0.5196,-0.112407634,-0.306115737
0.5198,-0.112407634,-0.306115737
0.52,-0.112407634,-0.306115737
0.5202,-0.112407634,-0.306115737
0.5204,-0.077820669,-0.306115737
0.5206,-0.077820669,-0.306115737
0.5208,-0.112407634,-0.306115737
0.521,-0.112407634,-0.306115737
0.5212,-0.112407634,-0.306115737
0.5214,-0.112407634,-0.306115737
0.5216,-0.077820669,-0.306115737
0.5218,-0.112407634,-0.306115737
0.522,-0.112407634,-0.306115737
0.5222,-0.112407634,-0.306115737
0.5224,-0.146994598,-0.306115737
0.5226,-0.146994598,-0.306115737
0.5228,-0.077820669,-0.306115737
0.523,-0.077820669,-0.306115737
0.5232,-0.112407634,-0.306115737
0.5234,-0.077820669,-0.306115737
0.5236,-0.112407634,-0.306115737
0.5238,-0.112407634,-0.306115737
0.524,-0.077820669,-0.306115737
0.5242,-0.077820669,-0.306115737
0.5244,-0.112407634,-0.306115737
0.5246,-0.077820669,-0.306115737
0.5248,-0.077820669,-0.306115737
0.525,-0.077820669,-0.306115737
0.5252,-0.077820669,-0.306115737
0.5254,-0.077820669,-0.306115737
0.5256,-0.077820669,-0.306115737
0.5258,-0.077820669,-0.306115737
0.526,-0.077820669,-0.306115737
0.5262,-0.077820669,-0.306115737
0.5264,-0.077820669,-0.306115737
0.5266,-0.077820669,-0.306115737
0.5268,-0.077820669,-0.306115737
0.527,-0.077820669,-0.306115737
0.5272,-0.077820669,-0.306115737
0.5274,-0.077820669,-0.306115737
0.5276,-0.077820669,-0.306115737
0.5278,-0.077820669,-0.306115737
0.528,-0.077820669,-0.306115737
0.5282,-0.04539539,-0.306115737
0.5284,-0.04539539,-0.306115737
0.5286,-0.077820669,-0.306115737
0.5288,-0.077820669,-0.306115737
0.529,-0.077820669,-0.306115737
0.5292,-0.077820669,-0.306115737
0.5294,-0.04539539,-0.306115737
0.5296,-0.077820669,-0.306115737
0.5298,-0.077820669,-0.306115737
0.53,-0.077820669,-0.306115737
0.5302,-0.077820669,-0.306115737
0.5304,-0.04539539,-0.306115737
0.5306,-0.04539539,-0.306115737
0.5308,-0.04539539,-0.306115737
0.531,-0.04539539,-0.306115737
0.5312,-0.04539539,-0.306115737
0.5314,-0.04539539,-0.306115737
0.5316,-0.04539539,-0.306115737
0.5318,-0.010808426,-0.306115737
0.532,-0.010808426,-0.306115737
0.5322,-0.04539539,-0.306115737
0.5324,-0.04539539,-0.306115737
0.5326,-0.04539539,-0.306115737
0.5328,-0.010808426,-0.306115737
0.533,-0.010808426,-0.306115737
0.5332,-0.04539539,-0.306115737
0.5334,-0.04539539,-0.306115737
0.5336,-0.04539539,-0.306115737
0.5338,-0.010808426,-0.306115737
0.534,0.023778538,-0.306115737
0.5342,-0.010808426,-0.306115737
0.5344,-0.010808426,-0.306115737
0.5346,0.023778538,-0.306115737
0.5348,-0.04539539,-0.306115737
0.535,0.023778538,-0.306115737
0.5352,0.023778538,-0.306115737
0.5354,-0.010808426,-0.306115737
0.5356,-0.010808426,-0.306115737
0.5358,0.023778538,-0.306115737
0.536,0.023778538,-0.306115737
0.5362,0.058365502,-0.306115737
0.5364,0.058365502,-0.306115737
0.5366,0.023778538,-0.306115737
0.5368,0.058365502,-0.306115737
0.537,0.058365502,-0.306115737
0.5372,0.092952466,-0.306115737
0.5374,0.092952466,-0.306115737
0.5376,0.092952466,-0.306115737
0.5378,0.092952466,-0.306115737
0.538,0.092952466,-0.306115737
0.5382,0.092952466,-0.306115737
0.5384,0.092952466,-0.306115737
0.5386,0.092952466,-0.306115737
0.5388,0.092952466,-0.306115737
0.539,0.092952466,-0.306115737
0.5392,0.092952466,-0.306115737
0.5394,0.092952466,-0.306115737
0.5396,0.092952466,-0.306115737
0.5398,0.092952466,-0.306115737
0.54,0.058365502,-0.306115737
0.5402,0.058365502,-0.306115737
0.5404,0.092952466,-0.306115737
0.5406,0.092952466,-0.306115737
0.5408,0.092952466,-0.306115737
0.541,0.092952466,-0.306115737
0.5412,0.092952466,-0.306115737
0.5414,0.092952466,-0.306115737
0.5416,0.092952466,-0.306115737
0.5418,0.092952466,-0.306115737
0.542,0.092952466,-0.306115737
0.5422,0.092952466,-0.306115737
0.5424,0.092952466,-0.306115737
0.5426,0.092952466,-0.306115737
0.5428,0.092952466,-0.306115737
0.543,0.092952466,-0.306115737
0.5432,0.092952466,-0.306115737
0.5434,0.092952466,-0.306115737
0.5436,0.092952466,-0.306115737
0.5438,0.092952466,-0.306115737
0.544,0.12753943,-0.306115737
0.5442,0.092952466,-0.306115737
0.5444,0.092952466,-0.306115737
0.5446,0.12753943,-0.306115737
0.5448,0.092952466,-0.306115737
0.545,0.092952466,-0.306115737
0.5452,0.092952466,-0.306115737
0.5454,0.092952466,-0.306115737
0.5456,0.058365502,-0.306115737
0.5458,0.092952466,-0.306115737
0.546,0.092952466,-0.306115737
0.5462,0.058365502,-0.306115737
0.5464,0.058365502,-0.306115737
0.5466,0.058365502,-0.306115737
0.5468,0.023778538,-0.306115737
0.547,0.058365502,0.047094729
0.5472,0.058365502,-0.306115737
0.5474,0.023778538,-0.306115737
0.5476,-0.010808426,-0.306115737
0.5478,-0.010808426,-0.306115737
0.548,-0.010808426,-0.306115737
0.5482,-0.010808426,-0.306115737
0.5484,0.023778538,-0.306115737
0.5486,-0.010808426,-0.306115737
0.5488,-0.010808426,-0.306115737
0.549,-0.010808426,-0.306115737
0.5492,-0.04539539,-0.306115737
0.5494,-0.010808426,-0.306115737
0.5496,-0.010808426,-0.306115737
0.5498,-0.04539539,-0.306115737
0.55,-0.04539539,-0.306115737
0.5502,-0.04539539,-0.306115737
0.5504,-0.04539539,-0.306115737
0.5506,-0.04539539,-0.306115737
0.5508,-0.04539539,-0.306115737
0.551,-0.04539539,-0.306115737
0.5512,-0.04539539,-0.306115737
0.5514,-0.04539539,-0.306115737
0.5516,-0.04539539,-0.306115737
0.5518,-0.04539539,-0.306115737
0.552,-0.04539539,-0.306115737
0.5522,-0.077820669,-0.306115737
0.5524,-0.04539539,-0.306115737
0.5526,-0.077820669,-0.306115737
0.5528,-0.077820669,-0.306115737
0.553,-0.077820669,-0.306115737
0.5532,-0.077820669,-0.306115737
0.5534,-0.077820669,-0.306115737
0.5536,-0.077820669,-0.306115737
0.5538,-0.077820669,-0.306115737
0.554,-0.077820669,-0.306115737
0.5542,-0.112407634,-0.306115737
0.5544,-0.077820669,-0.306115737
0.5546,-0.077820669,-0.306115737
0.5548,-0.077820669,-0.306115737
0.555,-0.077820669,-0.306115737
0.5552,-0.112407634,-0.306115737
0.5554,-0.112407634,-0.306115737
0.5556,-0.077820669,-0.306115737
0.5558,-0.077820669,-0.306115737
0.556,-0.112407634,-0.306115737
0.5562,-0.077820669,-0.306115737
0.5564,-0.112407634,-0.306115737
0.5566,-0.146994598,-0.306115737
0.5568,-0.04539539,-0.306115737
0.557,-0.077820669,-0.306115737
0.5572,-0.077820669,-0.306115737
0.5574,-0.077820669,-0.306115737
0.5576,-0.077820669,-0.306115737
0.5578,-0.077820669,-0.306115737
0.558,-0.077820669,-0.306115737
0.5582,-0.077820669,-0.306115737
0.5584,-0.077820669,-0.306115737
0.5586,-0.04539539,-0.306115737
0.5588,-0.077820669,-0.306115737
0.559,-0.077820669,-0.306115737
0.5592,-0.04539539,-0.306115737
0.5594,-0.04539539,-0.306115737
0.5596,-0.04539539,-0.306115737
0.5598,-0.04539539,-0.306115737
0.56,-0.077820669,-0.306115737
0.5602,-0.04539539,-0.306115737
0.5604,-0.04539539,-0.306115737
0.5606,-0.010808426,-0.306115737
0.5608,-0.04539539,-0.306115737
0.561,-0.04539539,-0.306115737
0.5612,-0.04539539,-0.306115737
0.5614,-0.010808426,-0.306115737
0.5616,-0.010808426,-0.306115737
0.5618,-0.010808426,-0.306115737
0.562,-0.010808426,-0.306115737
0.5622,0.023778538,0.047094729
0.5624,0.058365502,-0.306115737
0.5626,0.058365502,-0.306115737
0.5628,0.058365502,-0.306115737
0.563,0.058365502,-0.306115737
0.5632,0.023778538,-0.306115737
0.5634,0.058365502,-0.306115737
0.5636,0.058365502,-0.306115737
0.5638,0.058365502,-0.306115737
0.564,0.058365502,-0.306115737
0.5642,0.058365502,-0.306115737
0.5644,0.058365502,-0.306115737
0.5646,0.092952466,-0.306115737
0.5648,0.092952466,-0.306115737
0.565,0.058365502,-0.306115737
0.5652,0.058365502,-0.306115737
0.5654,0.058365502,-0.306115737
0.5656,0.092952466,-0.306115737
0.5658,0.092952466,-0.306115737
0.566,0.092952466,-0.306115737
0.5662,0.058365502,-0.306115737
0.5664,0.058365502,-0.306115737
0.5666,0.058365502,-0.306115737
0.5668,0.023778538,-0.306115737
0.567,0.058365502,-0.306115737
0.5672,0.058365502,-0.306115737
0.5674,0.058365502,-0.306115737
0.5676,0.058365502,-0.306115737
0.5678,0.058365502,-0.306115737
0.568,0.058365502,-0.306115737
0.5682,0.058365502,-0.306115737
0.5684,0.023778538,-0.306115737
0.5686,0.023778538,-0.306115737
0.5688,0.058365502,-0.306115737
0.569,0.058365502,-0.306115737
0.5692,0.058365502,-0.306115737
0.5694,0.058365502,-0.306115737
0.5696,0.058365502,-0.306115737
0.5698,0.023778538,-0.306115737
0.57,0.092952466,-0.306115737
0.5702,0.058365502,-0.306115737
0.5704,0.023778538,-0.306115737
0.5706,0.058365502,-0.306115737
0.5708,0.058365502,-0.306115737
0.571,0.023778538,-0.306115737
0.5712,0.058365502,-0.306115737
0.5714,0.058365502,-0.306115737
0.5716,0.058365502,-0.306115737
0.5718,-0.010808426,-0.306115737
0.572,0.023778538,-0.306115737
0.5722,0.023778538,-0.306115737
0.5724,-0.010808426,-0.306115737
0.5726,0.023778538,-0.306115737
0.5728,-0.010808426,-0.306115737
0.573,-0.04539539,-0.306115737
0.5732,-0.010808426,-0.306115737
0.5734,-0.010808426,-0.306115737
0.5736,-0.010808426,-0.306115737
0.5738,-0.010808426,-0.306115737
0.574,-0.04539539,-0.306115737
0.5742,-0.04539539,-0.306115737
0.5744,-0.010808426,-0.306115737
0.5746,-0.04539539,-0.306115737
0.5748,-0.04539539,-0.306115737
0.575,-0.010808426,-0.306115737
0.5752,-0.010808426,-0.306115737
0.5754,-0.04539539,-0.306115737
0.5756,-0.010808426,-0.306115737
0.5758,-0.04539539,-0.306115737
0.576,-0.04539539,-0.306115737
0.5762,-0.04539539,-0.306115737
0.5764,-0.04539539,-0.306115737
0.5766,-0.04539539,-0.306115737
0.5768,-0.010808426,-0.306115737
0.577,-0.04539539,-0.306115737
0.5772,-0.04539539,-0.306115737
0.5774,-0.04539539,-0.306115737
0.5776,-0.04539539,-0.306115737
0.5778,-0.04539539,-0.306115737
0.578,-0.010808426,-0.306115737
0.5782,-0.010808426,-0.306115737
0.5784,-0.04539539,-0.306115737
0.5786,-0.010808426,-0.306115737
0.5788,-0.010808426,-0.306115737
0.579,-0.010808426,-0.306115737
0.5792,-0.010808426,-0.306115737
0.5794,-0.04539539,-0.306115737
0.5796,-0.04539539,-0.306115737
0.5798,-0.04539539,-0.306115737
0.58,-0.04539539,-0.306115737
0.5802,-0.04539539,-0.306115737
0.5804,-0.04539539,-0.306115737
0.5806,-0.04539539,-0.306115737
0.5808,-0.04539539,-0.306115737
0.581,-0.04539539,-0.306115737
0.5812,-0.04539539,-0.306115737
0.5814,-0.04539539,-0.306115737
0.5816,-0.010808426,-0.306115737
0.5818,-0.04539539,-0.306115737
0.582,-0.010808426,-0.306115737
0.5822,-0.010808426,-0.306115737
0.5824,-0.010808426,-0.306115737
0.5826,-0.010808426,-0.306115737
0.5828,-0.010808426,0.047094729
0.583,0.023778538,-0.306115737
0.5832,-0.010808426,-0.306115737
0.5834,-0.010808426,-0.306115737
0.5836,0.058365502,-0.306115737
0.5838,-0.010808426,-0.306115737
0.584,-0.010808426,-0.306115737
0.5842,0.023778538,-0.306115737
0.5844,0.023778538,-0.306115737
0.5846,0.023778538,-0.306115737
0.5848,0.023778538,-0.306115737
0.585,-0.010808426,-0.306115737
0.5852,-0.010808426,-0.306115737
0.5854,0.023778538,-0.306115737
0.5856,0.023778538,-0.306115737
0.5858,0.023778538,-0.306115737
0.586,-0.010808426,-0.306115737
0.5862,-0.010808426,-0.306115737
0.5864,-0.010808426,-0.306115737
0.5866,-0.04539539,-0.306115737
0.5868,0.023778538,-0.306115737
0.587,-0.010808426,-0.306115737
0.5872,0.023778538,-0.306115737
0.5874,-0.010808426,-0.306115737
0.5876,-0.010808426,-0.306115737
0.5878,0.023778538,-0.306115737
0.588,0.023778538,-0.306115737
0.5882,-0.010808426,0.047094729
0.5884,-0.010808426,-0.306115737
0.5886,0.023778538,-0.306115737
0.5888,-0.010808426,-0.306115737
0.589,0.023778538,-0.306115737
0.5892,0.023778538,-0.306115737
0.5894,-0.010808426,-0.306115737
0.5896,-0.010808426,-0.306115737
0.5898,0.023778538,-0.306115737
0.59,0.023778538,-0.306115737
0.5902,-0.010808426,-0.306115737
0.5904,-0.010808426,-0.306115737
0.5906,-0.010808426,-0.306115737
0.5908,-0.010808426,-0.306115737
0.591,-0.010808426,-0.306115737
0.5912,-0.04539539,-0.306115737
0.5914,-0.010808426,-0.306115737
0.5916,-0.010808426,-0.306115737
0.5918,-0.04539539,-0.306115737
0.592,-0.010808426,-0.306115737
0.5922,-0.04539539,-0.306115737
0.5924,-0.04539539,-0.306115737
0.5926,-0.04539539,-0.306115737
0.5928,-0.04539539,-0.306115737
0.593,-0.04539539,-0.306115737
0.5932,-0.04539539,-0.306115737
0.5934,-0.010808426,-0.306115737
0.5936,-0.04539539,-0.306115737
0.5938,-0.010808426,-0.306115737
0.594,-0.04539539,-0.306115737
0.5942,-0.04539539,-0.306115737
0.5944,-0.04539539,-0.306115737
0.5946,-0.010808426,-0.306115737
0.5948,-0.04539539,-0.306115737
0.595,-0.04539539,-0.306115737
0.5952,-0.04539539,-0.306115737
0.5954,-0.04539539,-0.306115737
0.5956,-0.04539539,-0.306115737
0.5958,-0.04539539,-0.306115737
0.596,-0.04539539,-0.306115737
0.5962,-0.04539539,-0.306115737
0.5964,-0.04539539,-0.306115737
0.5966,-0.04539539,-0.306115737
0.5968,-0.04539539,-0.306115737
0.597,-0.04539539,-0.306115737
0.5972,-0.04539539,-0.306115737
0.5974,-0.04539539,-0.306115737
0.5976,-0.04539539,-0.306115737
0.5978,-0.04539539,-0.306115737
0.598,-0.04539539,-0.306115737
0.5982,-0.04539539,-0.306115737
0.5984,-0.04539539,-0.306115737
0.5986,-0.077820669,-0.306115737
0.5988,-0.010808426,-0.306115737
0.599,-0.04539539,-0.306115737
0.5992,-0.04539539,-0.306115737
0.5994,-0.04539539,-0.306115737
0.5996,-0.04539539,-0.306115737
0.5998,-0.04539539,-0.306115737
0.6,-0.010808426,-0.306115737
0.6002,-0.010808426,-0.306115737
0.6004,-0.010808426,-0.306115737
0.6006,-0.010808426,-0.306115737
0.6008,0.023778538,-0.306115737
0.601,-0.010808426,-0.306115737
0.6012,-0.010808426,-0.306115737
0.6014,-0.010808426,-0.306115737
0.6016,-0.010808426,-0.306115737
0.6018,-0.010808426,-0.306115737
0.602,-0.010808426,-0.306115737
0.6022,0.023778538,-0.306115737
0.6024,0.058365502,-0.306115737
0.6026,0.023778538,-0.306115737
0.6028,0.023778538,-0.306115737
0.603,0.023778538,-0.306115737
0.6032,0.023778538,-0.306115737
0.6034,0.023778538,-0.306115737
0.6036,0.023778538,-0.306115737
0.6038,0.023778538,-0.306115737
0.604,-0.010808426,-0.306115737
0.6042,0.058365502,-0.306115737
0.6044,0.058365502,-0.306115737
0.6046,0.023778538,-0.306115737
0.6048,0.058365502,-0.306115737
0.605,0.023778538,-0.306115737
0.6052,-0.010808426,-0.306115737
0.6054,0.058365502,-0.306115737
0.6056,0.058365502,-0.306115737
0.6058,0.023778538,-0.306115737
0.606,0.023778538,-0.306115737
0.6062,0.023778538,-0.306115737
0.6064,0.023778538,-0.306115737
0.6066,-0.010808426,-0.306115737
0.6068,-0.010808426,-0.306115737
0.607,-0.010808426,-0.306115737
0.6072,-0.010808426,-0.306115737
0.6074,0.023778538,-0.306115737
0.6076,0.023778538,-0.306115737
0.6078,0.058365502,-0.306115737
0.608,0.058365502,-0.306115737
0.6082,0.023778538,-0.306115737
0.6084,-0.010808426,-0.306115737
0.6086,-0.010808426,-0.306115737
0.6088,0.023778538,-0.306115737
0.609,-0.010808426,-0.306115737
0.6092,0.023778538,-0.306115737
0.6094,-0.010808426,-0.306115737
0.6096,0.023778538,-0.306115737
0.6098,0.023778538,-0.306115737
0.61,0.023778538,-0.306115737
0.6102,-0.010808426,-0.306115737
0.6104,-0.010808426,-0.306115737
0.6106,-0.010808426,-0.306115737
0.6108,-0.010808426,-0.306115737
0.611,-0.010808426,-0.306115737
0.6112,-0.010808426,-0.306115737
0.6114,-0.010808426,-0.306115737
0.6116,-0.010808426,-0.306115737
0.6118,0.023778538,-0.306115737
0.612,-0.010808426,-0.306115737
0.6122,-0.010808426,-0.306115737
0.6124,-0.010808426,-0.306115737
0.6126,-0.010808426,-0.306115737
0.6128,-0.010808426,-0.306115737
0.613,-0.010808426,-0.306115737
0.6132,-0.010808426,-0.306115737
0.6134,-0.010808426,-0.306115737
0.6136,-0.010808426,-0.306115737
0.6138,-0.04539539,-0.306115737
0.614,-0.04539539,-0.306115737
0.6142,-0.010808426,-0.306115737
0.6144,-0.04539539,-0.306115737
0.6146,-0.010808426,-0.306115737
0.6148,-0.04539539,-0.306115737
0.615,-0.04539539,0.047094729
0.6152,-0.010808426,-0.306115737
0.6154,-0.010808426,-0.306115737
0.6156,-0.010808426,-0.306115737
0.6158,-0.010808426,-0.306115737
0.616,-0.04539539,-0.306115737
0.6162,-0.04539539,-0.306115737
0.6164,-0.010808426,-0.306115737
0.6166,-0.010808426,-0.306115737
0.6168,-0.010808426,-0.306115737
0.617,-0.010808426,-0.306115737
0.6172,-0.010808426,-0.306115737
0.6174,-0.010808426,-0.306115737
0.6176,-0.010808426,-0.306115737
0.6178,-0.010808426,-0.306115737
0.618,-0.010808426,-0.306115737
0.6182,-0.010808426,-0.306115737
0.6184,-0.04539539,-0.306115737
0.6186,-0.04539539,-0.306115737
0.6188,-0.010808426,-0.306115737
0.619,-0.010808426,-0.306115737
0.6192,-0.010808426,-0.306115737
0.6194,-0.010808426,-0.306115737
0.6196,-0.010808426,-0.306115737
0.6198,-0.010808426,-0.306115737
0.62,0.023778538,-0.306115737
0.6202,-0.010808426,-0.306115737
0.6204,0.023778538,-0.306115737
0.6206,0.023778538,-0.306115737
0.6208,0.023778538,-0.306115737
0.621,-0.010808426,-0.306115737
0.6212,0.058365502,-0.306115737
0.6214,0.023778538,-0.306115737
0.6216,-0.010808426,-0.306115737
0.6218,0.023778538,-0.306115737
0.622,0.058365502,-0.306115737
0.6222,0.023778538,-0.306115737
0.6224,0.058365502,-0.306115737
0.6226,0.023778538,-0.306115737
0.6228,0.023778538,-0.306115737
0.623,0.058365502,-0.306115737
0.6232,0.023778538,-0.306115737
0.6234,0.058365502,-0.306115737
0.6236,0.023778538,-0.306115737
0.6238,0.023778538,-0.306115737
0.624,0.023778538,-0.306115737
0.6242,0.058365502,-0.306115737
0.6244,0.058365502,-0.306115737
0.6246,0.058365502,-0.306115737
0.6248,0.023778538,-0.306115737
0.625,0.023778538,-0.306115737
0.6252,-0.010808426,-0.306115737
0.6254,0.023778538,-0.306115737
0.6256,0.023778538,-0.306115737
0.6258,-0.010808426,-0.306115737
0.626,-0.010808426,-0.306115737
0.6262,0.023778538,-0.306115737
0.6264,0.023778538,-0.306115737
0.6266,-0.010808426,-0.306115737
0.6268,0.023778538,-0.306115737
0.627,-0.04539539,-0.306115737
0.6272,-0.04539539,-0.306115737
0.6274,-0.010808426,-0.306115737
0.6276,-0.010808426,-0.306115737
0.6278,-0.04539539,-0.306115737
0.628,-0.010808426,-0.306115737
0.6282,-0.04539539,-0.306115737
0.6284,-0.04539539,-0.306115737
0.6286,-0.010808426,-0.306115737
0.6288,-0.010808426,-0.306115737
0.629,-0.04539539,-0.306115737
0.6292,-0.04539539,-0.306115737
0.6294,-0.04539539,-0.306115737
0.6296,-0.04539539,-0.306115737
0.6298,-0.010808426,-0.306115737
0.63,-0.010808426,-0.306115737
0.6302,-0.04539539,-0.306115737
0.6304,-0.04539539,-0.306115737
0.6306,-0.04539539,-0.306115737
0.6308,-0.04539539,-0.306115737
0.631,-0.04539539,-0.306115737
0.6312,-0.04539539,-0.306115737
0.6314,-0.077820669,-0.306115737
0.6316,-0.077820669,-0.306115737
0.6318,-0.077820669,-0.306115737
0.632,-0.077820669,-0.306115737
0.6322,-0.077820669,-0.306115737
0.6324,-0.077820669,-0.306115737
0.6326,-0.04539539,-0.306115737
0.6328,-0.077820669,0.047094729
0.633,-0.077820669,-0.306115737
0.6332,-0.077820669,-0.306115737
0.6334,-0.077820669,0.047094729
0.6336,-0.077820669,-0.306115737
0.6338,-0.077820669,-0.306115737
0.634,-0.04539539,-0.306115737
0.6342,-0.077820669,-0.306115737
0.6344,-0.077820669,-0.306115737
0.6346,-0.077820669,-0.306115737
0.6348,-0.077820669,-0.306115737
0.635,-0.077820669,-0.306115737
0.6352,-0.077820669,-0.306115737
0.6354,-0.077820669,-0.306115737
0.6356,-0.077820669,-0.306115737
0.6358,-0.077820669,-0.306115737
0.636,-0.077820669,-0.306115737
0.6362,-0.04539539,-0.306115737
0.6364,-0.04539539,-0.306115737
0.6366,-0.04539539,-0.306115737
0.6368,-0.077820669,-0.306115737
0.637,-0.04539539,-0.306115737
0.6372,-0.010808426,-0.306115737
0.6374,-0.04539539,-0.306115737
0.6376,-0.010808426,-0.306115737
0.6378,-0.010808426,-0.306115737
0.638,-0.04539539,-0.306115737
0.6382,-0.04539539,-0.306115737
0.6384,-0.010808426,-0.306115737
0.6386,-0.010808426,-0.306115737
0.6388,-0.010808426,0.047094729
0.639,-0.010808426,-0.306115737
0.6392,-0.010808426,-0.306115737
0.6394,0.023778538,-0.306115737
0.6396,0.023778538,-0.306115737
0.6398,0.023778538,-0.306115737
0.64,0.023778538,-0.306115737
0.6402,-0.010808426,-0.306115737
0.6404,-0.010808426,-0.306115737
0.6406,-0.010808426,-0.306115737
0.6408,0.058365502,-0.306115737
0.641,0.058365502,-0.306115737
0.6412,0.058365502,-0.306115737
0.6414,0.058365502,-0.306115737
0.6416,0.058365502,-0.306115737
0.6418,0.058365502,-0.306115737
0.642,0.058365502,-0.306115737
0.6422,0.058365502,-0.306115737
0.6424,0.058365502,-0.306115737
0.6426,0.058365502,-0.306115737
0.6428,0.058365502,-0.306115737
0.643,0.092952466,-0.306115737
0.6432,0.092952466,-0.306115737
0.6434,0.058365502,-0.306115737
0.6436,0.058365502,0.047094729
0.6438,0.092952466,-0.306115737
0.644,0.092952466,-0.306115737
0.6442,0.092952466,-0.306115737
0.6444,0.092952466,0.047094729
0.6446,0.092952466,-0.306115737
0.6448,0.092952466,-0.306115737
0.645,0.092952466,-0.306115737
0.6452,0.092952466,-0.306115737
0.6454,0.092952466,-0.306115737
0.6456,0.092952466,-0.306115737
0.6458,0.092952466,-0.306115737
0.646,0.092952466,-0.306115737
0.6462,0.092952466,-0.306115737
0.6464,0.092952466,-0.306115737
0.6466,0.058365502,-0.306115737
0.6468,0.092952466,-0.306115737
0.647,0.092952466,-0.306115737
0.6472,0.092952466,-0.306115737
0.6474,0.092952466,-0.306115737
0.6476,0.092952466,-0.306115737
0.6478,0.058365502,0.047094729
0.648,0.058365502,-0.306115737
0.6482,0.058365502,-0.306115737
0.6484,0.058365502,0.047094729
0.6486,0.092952466,-0.306115737
0.6488,0.058365502,-0.306115737
0.649,0.023778538,-0.306115737
0.6492,0.058365502,-0.306115737
0.6494,0.023778538,-0.306115737
0.6496,-0.010808426,-0.306115737
0.6498,0.023778538,-0.306115737
0.65,0.023778538,-0.306115737
0.6502,-0.010808426,-0.306115737
0.6504,-0.010808426,-0.306115737
0.6506,0.023778538,-0.306115737
0.6508,-0.010808426,-0.306115737
0.651,-0.010808426,-0.306115737
0.6512,-0.010808426,-0.306115737
0.6514,-0.010808426,-0.306115737
0.6516,-0.010808426,-0.306115737
0.6518,-0.010808426,-0.306115737
0.652,-0.04539539,-0.306115737
0.6522,-0.010808426,-0.306115737
0.6524,-0.04539539,-0.306115737
0.6526,-0.04539539,0.047094729
0.6528,-0.04539539,-0.306115737
0.653,-0.010808426,-0.306115737
0.6532,-0.04539539,-0.306115737
0.6534,-0.010808426,-0.306115737
0.6536,-0.04539539,-0.306115737
0.6538,-0.04539539,-0.306115737
0.654,-0.010808426,-0.306115737
0.6542,-0.04539539,-0.306115737
0.6544,-0.04539539,-0.306115737
0.6546,-0.04539539,-0.306115737
0.6548,-0.04539539,-0.306115737
0.655,-0.04539539,-0.306115737
0.6552,-0.04539539,-0.306115737
0.6554,-0.04539539,-0.306115737
0.6556,-0.04539539,0.047094729
0.6558,-0.04539539,-0.306115737
0.656,-0.04539539,-0.306115737
0.6562,-0.04539539,-0.306115737
0.6564,-0.04539539,-0.306115737
0.6566,-0.04539539,0.047094729
0.6568,-0.04539539,-0.306115737
0.657,-0.04539539,-0.306115737
0.6572,-0.04539539,-0.306115737
0.6574,-0.04539539,0.047094729
0.6576,-0.04539539,-0.306115737
0.6578,-0.04539539,-0.306115737
0.658,-0.04539539,-0.306115737
0.6582,-0.010808426,-0.306115737
0.6584,-0.04539539,-0.306115737
0.6586,-0.010808426,-0.306115737
0.6588,-0.04539539,-0.306115737
0.659,-0.04539539,-0.306115737
0.6592,-0.04539539,-0.306115737
0.6594,-0.04539539,0.047094729
0.6596,-0.04539539,-0.306115737
0.6598,-0.04539539,-0.306115737
0.66,-0.010808426,-0.306115737
0.6602,-0.04539539,-0.306115737
0.6604,-0.010808426,-0.306115737
0.6606,-0.010808426,-0.306115737
0.6608,-0.010808426,-0.306115737
0.661,-0.04539539,0.047094729
0.6612,-0.010808426,-0.306115737
0.6614,-0.010808426,-0.306115737
0.6616,-0.010808426,-0.306115737
0.6618,-0.010808426,-0.306115737
0.662,0.023778538,-0.306115737
0.6622,-0.04539539,0.047094729
0.6624,-0.04539539,0.047094729
0.6626,-0.04539539,-0.306115737
0.6628,-0.04539539,-0.306115737
0.663,-0.04539539,-0.306115737
0.6632,-0.010808426,-0.306115737
0.6634,-0.04539539,0.047094729
0.6636,-0.010808426,-0.306115737
0.6638,-0.04539539,-0.306115737
0.664,-0.04539539,-0.306115737
0.6642,-0.010808426,-0.306115737
0.6644,-0.04539539,-0.306115737
0.6646,-0.04539539,-0.306115737
0.6648,-0.04539539,-0.306115737
0.665,-0.04539539,-0.306115737
0.6652,-0.04539539,-0.306115737
0.6654,-0.04539539,0.047094729
0.6656,-0.04539539,-0.306115737
0.6658,-0.077820669,-0.306115737
0.666,-0.04539539,-0.306115737
0.6662,-0.04539539,-0.306115737
0.6664,-0.04539539,0.047094729
0.6666,-0.04539539,-0.306115737
0.6668,-0.04539539,-0.306115737
0.667,-0.04539539,0.047094729
0.6672,-0.010808426,-0.306115737
0.6674,-0.010808426,-0.306115737
0.6676,-0.04539539,0.047094729
0.6678,-0.04539539,-0.306115737
0.668,-0.077820669,-0.306115737
0.6682,-0.077820669,0.047094729
0.6684,-0.04539539,0.047094729
0.6686,-0.04539539,-0.306115737
0.6688,-0.077820669,-0.306115737
0.669,-0.04539539,0.047094729
0.6692,-0.04539539,-0.306115737
0.6694,-0.077820669,-0.306115737
0.6696,-0.04539539,0.047094729
0.6698,-0.077820669,-0.306115737
0.67,-0.077820669,-0.306115737
0.6702,-0.04539539,0.047094729
0.6704,-0.077820669,-0.306115737
0.6706,-0.077820669,-0.306115737
0.6708,-0.04539539,-0.306115737
0.671,-0.077820669,-0.306115737
0.6712,-0.077820669,-0.306115737
0.6714,-0.04539539,-0.306115737
0.6716,-0.04539539,-0.306115737
0.6718,-0.04539539,-0.306115737
0.672,-0.010808426,-0.306115737
0.6722,-0.04539539,-0.306115737
0.6724,-0.04539539,-0.306115737
0.6726,-0.010808426,-0.306115737
0.6728,-0.010808426,-0.306115737
0.673,-0.010808426,-0.306115737
0.6732,-0.010808426,0.047094729
0.6734,-0.010808426,-0.306115737
0.6736,-0.010808426,-0.306115737
0.6738,-0.010808426,-0.306115737
0.674,-0.010808426,-0.306115737
0.6742,-0.010808426,-0.306115737
0.6744,-0.010808426,0.047094729
0.6746,0.023778538,-0.306115737
0.6748,0.058365502,-0.306115737
0.675,0.058365502,0.047094729
0.6752,0.023778538,-0.306115737
0.6754,0.023778538,-0.306115737
0.6756,0.058365502,-0.306115737
0.6758,0.058365502,-0.306115737
0.676,0.058365502,-0.306115737
0.6762,0.058365502,-0.306115737
0.6764,0.058365502,-0.306115737
0.6766,0.058365502,0.047094729
0.6768,0.058365502,-0.306115737
0.677,0.092952466,-0.306115737
0.6772,0.092952466,-0.306115737
0.6774,0.092952466,-0.306115737
0.6776,0.058365502,-0.306115737
0.6778,0.092952466,-0.306115737
0.678,0.092952466,-0.306115737
0.6782,0.092952466,-0.306115737
0.6784,0.092952466,-0.306115737
0.6786,0.092952466,-0.306115737
0.6788,0.12753943,-0.306115737
0.679,0.092952466,-0.306115737
0.6792,0.12753943,-0.306115737
0.6794,0.12753943,-0.306115737
0.6796,0.12753943,-0.306115737
0.6798,0.092952466,0.047094729
0.68,0.092952466,-0.306115737
0.6802,0.092952466,-0.306115737
0.6804,0.092952466,0.047094729
0.6806,0.12753943,0.047094729
0.6808,0.092952466,-0.306115737
0.681,0.092952466,0.047094729
0.6812,0.092952466,-0.306115737
0.6814,0.092952466,-0.306115737
0.6816,0.092952466,0.047094729
0.6818,0.092952466,-0.306115737
0.682,0.092952466,-0.306115737
0.6822,0.092952466,0.047094729
0.6824,0.092952466,-0.306115737
0.6826,0.092952466,-0.306115737
0.6828,0.092952466,0.047094729
0.683,0.092952466,-0.306115737
0.6832,0.092952466,-0.306115737
0.6834,0.058365502,-0.306115737
0.6836,0.092952466,-0.306115737
0.6838,0.092952466,-0.306115737
0.684,0.058365502,0.047094729
0.6842,0.058365502,-0.306115737
0.6844,0.058365502,-0.306115737
0.6846,0.023778538,0.047094729
0.6848,0.058365502,-0.306115737
0.685,0.058365502,0.047094729
0.6852,0.023778538,0.047094729
0.6854,0.023778538,0.047094729
0.6856,0.023778538,-0.306115737
0.6858,0.023778538,-0.306115737
0.686,-0.010808426,-0.306115737
0.6862,0.023778538,-0.306115737
0.6864,-0.010808426,-0.306115737
0.6866,-0.010808426,-0.306115737
0.6868,-0.010808426,-0.306115737
0.687,-0.010808426,-0.306115737
0.6872,-0.010808426,-0.306115737
0.6874,-0.04539539,-0.306115737
0.6876,-0.04539539,0.047094729
0.6878,-0.04539539,-0.306115737
0.688,-0.04539539,-0.306115737
0.6882,-0.077820669,-0.306115737
0.6884,-0.04539539,-0.306115737
0.6886,-0.077820669,-0.306115737
0.6888,-0.077820669,-0.306115737
0.689,-0.077820669,-0.306115737
0.6892,-0.077820669,-0.306115737
0.6894,-0.077820669,-0.306115737
0.6896,-0.077820669,-0.306115737
0.6898,-0.077820669,-0.306115737
0.69,-0.077820669,-0.306115737
0.6902,-0.077820669,0.047094729
0.6904,-0.077820669,-0.306115737
0.6906,-0.077820669,-0.306115737
0.6908,-0.112407634,-0.306115737
0.691,-0.077820669,-0.306115737
0.6912,-0.112407634,0.047094729
0.6914,-0.077820669,-0.306115737
0.6916,-0.077820669,-0.306115737
0.6918,-0.077820669,-0.306115737
0.692,-0.077820669,-0.306115737
0.6922,-0.077820669,-0.306115737
0.6924,-0.112407634,-0.306115737
0.6926,-0.077820669,-0.306115737
0.6928,-0.077820669,-0.306115737
0.693,-0.112407634,0.047094729
0.6932,-0.077820669,-0.306115737
0.6934,-0.077820669,-0.306115737
0.6936,-0.112407634,-0.306115737
0.6938,-0.077820669,-0.306115737
0.694,-0.077820669,-0.306115737
0.6942,-0.077820669,-0.306115737
0.6944,-0.077820669,-0.306115737
0.6946,-0.077820669,-0.306115737
0.6948,-0.077820669,0.047094729
0.695,-0.077820669,0.047094729
0.6952,-0.077820669,-0.306115737
0.6954,-0.077820669,-0.306115737
0.6956,-0.04539539,0.047094729
0.6958,-0.04539539,-0.306115737
0.696,-0.04539539,-0.306115737
0.6962,-0.04539539,-0.306115737
0.6964,-0.077820669,-0.306115737
0.6966,-0.077820669,-0.306115737
0.6968,-0.04539539,-0.306115737
0.697,-0.04539539,-0.306115737
0.6972,-0.04539539,-0.306115737
0.6974,-0.010808426,-0.306115737
0.6976,-0.010808426,-0.306115737
0.6978,-0.04539539,-0.306115737
0.698,-0.010808426,-0.306115737
0.6982,-0.010808426,-0.306115737
0.6984,-0.04539539,-0.306115737
0.6986,-0.010808426,-0.306115737
0.6988,-0.010808426,-0.306115737
0.699,-0.04539539,-0.306115737
0.6992,-0.010808426,0.047094729
0.6994,0.023778538,-0.306115737
0.6996,-0.010808426,-0.306115737
0.6998,-0.010808426,-0.306115737
0.7,0.058365502,-0.306115737
0.7002,0.023778538,-0.306115737
0.7004,-0.010808426,-0.306115737
0.7006,0.023778538,-0.306115737
0.7008,0.023778538,-0.306115737
0.701,0.023778538,-0.306115737
0.7012,0.023778538,-0.306115737
0.7014,0.023778538,-0.306115737
0.7016,0.058365502,-0.306115737
0.7018,0.023778538,-0.306115737
0.702,-0.010808426,-0.306115737
0.7022,0.023778538,-0.306115737
0.7024,0.023778538,-0.306115737
0.7026,0.023778538,-0.306115737
0.7028,0.023778538,-0.306115737
0.703,0.023778538,-0.306115737
0.7032,0.023778538,-0.306115737
0.7034,0.058365502,-0.306115737
0.7036,0.058365502,-0.306115737
0.7038,0.023778538,-0.306115737
0.704,0.058365502,-0.306115737
0.7042,0.058365502,-0.306115737
0.7044,0.058365502,-0.306115737
0.7046,0.058365502,-0.306115737
0.7048,0.058365502,-0.306115737
0.705,0.058365502,-0.306115737
0.7052,0.058365502,0.047094729
0.7054,0.058365502,-0.306115737
0.7056,0.058365502,-0.306115737
0.7058,0.058365502,-0.306115737
0.706,0.058365502,-0.306115737
0.7062,0.058365502,-0.306115737
0.7064,0.023778538,-0.306115737
0.7066,-0.010808426,0.047094729
0.7068,0.023778538,0.047094729
0.707,0.058365502,-0.306115737
0.7072,0.058365502,-0.306115737
0.7074,0.023778538,-0.306115737
0.7076,0.058365502,-0.306115737
0.7078,0.023778538,-0.306115737
0.708,-0.010808426,-0.306115737
0.7082,0.023778538,-0.306115737
0.7084,0.023778538,-0.306115737
0.7086,0.023778538,-0.306115737
0.7088,-0.010808426,-0.306115737
0.709,0.023778538,-0.306115737
0.7092,0.023778538,-0.306115737
0.7094,0.023778538,-0.306115737
0.7096,0.023778538,-0.306115737
0.7098,0.023778538,-0.306115737
0.71,-0.010808426,0.047094729
0.7102,0.023778538,-0.306115737
0.7104,0.058365502,-0.306115737
0.7106,0.023778538,-0.306115737
0.7108,0.023778538,-0.306115737
0.711,0.023778538,-0.306115737
0.7112,0.023778538,-0.306115737
0.7114,0.023778538,-0.306115737
0.7116,0.023778538,-0.306115737
0.7118,0.058365502,0.047094729
0.712,0.058365502,-0.306115737
0.7122,0.023778538,-0.306115737
0.7124,0.058365502,-0.306115737
0.7126,0.058365502,-0.306115737
0.7128,0.058365502,-0.306115737
0.713,0.058365502,-0.306115737
0.7132,0.058365502,-0.306115737
0.7134,0.023778538,-0.306115737
0.7136,0.058365502,0.047094729
0.7138,0.058365502,-0.306115737
0.714,0.023778538,-0.306115737
0.7142,0.058365502,0.047094729
0.7144,0.058365502,-0.306115737
0.7146,0.058365502,-0.306115737
0.7148,0.058365502,0.047094729
0.715,0.058365502,-0.306115737
0.7152,0.058365502,-0.306115737
0.7154,0.023778538,0.047094729
0.7156,0.058365502,-0.306115737
0.7158,0.058365502,-0.306115737
0.716,0.058365502,-0.306115737
0.7162,0.058365502,-0.306115737
0.7164,0.023778538,-0.306115737
0.7166,-0.010808426,0.047094729
0.7168,0.023778538,-0.306115737
0.717,0.023778538,-0.306115737
0.7172,0.058365502,-0.306115737
0.7174,0.023778538,0.047094729
0.7176,0.023778538,-0.306115737
0.7178,0.058365502,-0.306115737
0.718,0.023778538,-0.306115737
0.7182,0.023778538,-0.306115737
0.7184,0.023778538,0.047094729
0.7186,0.058365502,-0.306115737
0.7188,-0.010808426,-0.306115737
0.719,-0.010808426,-0.306115737
0.7192,0.023778538,-0.306115737
0.7194,-0.010808426,-0.306115737
0.7196,-0.010808426,0.047094729
0.7198,0.023778538,-0.306115737
0.72,0.023778538,-0.306115737
0.7202,-0.010808426,0.047094729
0.7204,-0.010808426,-0.306115737
0.7206,0.023778538,-0.306115737
0.7208,-0.010808426,-0.306115737
0.721,-0.010808426,-0.306115737
0.7212,-0.010808426,-0.306115737
0.7214,-0.04539539,-0.306115737
0.7216,-0.010808426,-0.306115737
0.7218,-0.04539539,-0.306115737
0.722,-0.04539539,-0.306115737
0.7222,-0.010808426,-0.306115737
0.7224,-0.010808426,-0.306115737
0.7226,-0.04539539,-0.306115737
0.7228,-0.04539539,-0.306115737
0.723,-0.04539539,-0.306115737
0.7232,-0.04539539,0.047094729
0.7234,-0.04539539,-0.306115737
0.7236,-0.04539539,-0.306115737
0.7238,-0.077820669,0.047094729
0.724,-0.04539539,-0.306115737
0.7242,-0.077820669,-0.306115737
0.7244,-0.077820669,0.047094729
0.7246,-0.04539539,-0.306115737
0.7248,-0.077820669,-0.306115737
0.725,-0.077820669,0.047094729
0.7252,-0.077820669,-0.306115737
0.7254,-0.077820669,-0.306115737
0.7256,-0.077820669,-0.306115737
0.7258,-0.077820669,-0.306115737
0.726,-0.077820669,-0.306115737
0.7262,-0.077820669,-0.306115737
0.7264,-0.112407634,0.047094729
0.7266,-0.112407634,-0.306115737
0.7268,-0.112407634,-0.306115737
0.727,-0.112407634,-0.306115737
0.7272,-0.112407634,-0.306115737
0.7274,-0.112407634,-0.306115737
0.7276,-0.077820669,-0.306115737
0.7278,-0.077820669,-0.306115737
0.728,-0.077820669,0.047094729
0.7282,-0.077820669,-0.306115737
0.7284,-0.077820669,-0.306115737
0.7286,-0.077820669,-0.306115737
0.7288,-0.077820669,-0.306115737
0.729,-0.077820669,-0.306115737
0.7292,-0.112407634,0.047094729
0.7294,-0.077820669,-0.306115737
0.7296,-0.077820669,-0.306115737
0.7298,-0.112407634,-0.306115737
0.73,-0.077820669,0.047094729
0.7302,-0.077820669,-0.306115737
0.7304,-0.077820669,-0.306115737
0.7306,-0.04539539,0.047094729
0.7308,-0.077820669,-0.306115737
0.731,-0.077820669,-0.306115737
0.7312,-0.04539539,-0.306115737
0.7314,-0.04539539,-0.306115737
0.7316,-0.04539539,0.047094729
0.7318,-0.04539539,-0.306115737
0.732,-0.04539539,0.047094729
0.7322,-0.04539539,-0.306115737
0.7324,-0.04539539,-0.306115737
0.7326,-0.04539539,-0.306115737
0.7328,-0.04539539,-0.306115737
0.733,-0.010808426,-0.306115737
0.7332,-0.010808426,-0.306115737
0.7334,-0.010808426,0.047094729
0.7336,0.023778538,-0.306115737
0.7338,-0.010808426,-0.306115737
0.734,-0.010808426,0.047094729
0.7342,-0.010808426,-0.306115737
0.7344,0.023778538,-0.306115737
0.7346,-0.010808426,-0.306115737
0.7348,0.058365502,0.047094729
0.735,0.023778538,-0.306115737
0.7352,0.058365502,-0.306115737
0.7354,0.058365502,-0.306115737
0.7356,0.092952466,-0.306115737
0.7358,0.092952466,-0.306115737
0.736,0.092952466,-0.306115737
0.7362,0.092952466,-0.306115737
0.7364,0.092952466,-0.306115737
0.7366,0.092952466,0.047094729
0.7368,0.092952466,-0.306115737
0.737,0.092952466,-0.306115737
0.7372,0.092952466,-0.306115737
0.7374,0.092952466,-0.306115737
0.7376,0.092952466,-0.306115737
0.7378,0.092952466,-0.306115737
0.738,0.092952466,-0.306115737
0.7382,0.092952466,0.047094729
0.7384,0.092952466,-0.306115737
0.7386,0.092952466,-0.306115737
0.7388,0.092952466,0.047094729
0.739,0.092952466,-0.306115737
0.7392,0.092952466,-0.306115737
0.7394,0.092952466,0.047094729
0.7396,0.092952466,-0.306115737
0.7398,0.092952466,-0.306115737
0.74,0.092952466,-0.306115737
0.7402,0.092952466,-0.306115737
0.7404,0.092952466,-0.306115737
0.7406,0.058365502,-0.306115737
0.7408,0.058365502,0.047094729
0.741,0.092952466,-0.306115737
0.7412,0.058365502,-0.306115737
0.7414,0.092952466,0.047094729
0.7416,0.058365502,-0.306115737
0.7418,0.058365502,0.047094729
0.742,0.058365502,-0.306115737
0.7422,0.058365502,-0.306115737
0.7424,0.023778538,0.047094729
0.7426,0.058365502,-0.306115737
0.7428,0.058365502,-0.306115737
0.743,0.058365502,-0.306115737
0.7432,0.058365502,-0.306115737
0.7434,0.023778538,-0.306115737
0.7436,0.023778538,0.047094729
0.7438,0.058365502,-0.306115737
0.744,-0.010808426,-0.306115737
0.7442,-0.04539539,-0.306115737
0.7444,-0.010808426,0.047094729
0.7446,-0.04539539,-0.306115737
0.7448,-0.010808426,0.047094729
0.745,-0.010808426,0.047094729
0.7452,-0.010808426,-0.306115737
0.7454,-0.010808426,-0.306115737
0.7456,-0.010808426,-0.306115737
0.7458,-0.010808426,-0.306115737
0.746,-0.04539539,0.047094729
0.7462,-0.010808426,0.047094729
0.7464,-0.010808426,-0.306115737
0.7466,0.023778538,-0.306115737
0.7468,-0.010808426,-0.306115737
0.747,-0.04539539,-0.306115737
0.7472,-0.04539539,0.047094729
0.7474,-0.04539539,-0.306115737
0.7476,-0.04539539,-0.306115737
0.7478,-0.04539539,0.047094729
0.748,-0.04539539,-0.306115737
0.7482,-0.04539539,-0.306115737
0.7484,-0.04539539,0.047094729
0.7486,-0.04539539,-0.306115737
0.7488,-0.04539539,-0.306115737
0.749,-0.04539539,0.047094729
0.7492,-0.04539539,0.047094729
0.7494,-0.04539539,-0.306115737
0.7496,-0.04539539,0.047094729
0.7498,-0.04539539,0.047094729
0.75,-0.04539539,-0.306115737
0.7502,-0.04539539,-0.306115737
0.7504,-0.04539539,-0.306115737
0.7506,-0.04539539,-0.306115737
0.7508,-0.04539539,-0.306115737
0.751,-0.04539539,-0.306115737
0.7512,-0.04539539,-0.306115737
0.7514,-0.04539539,-0.306115737
0.7516,-0.04539539,-0.306115737
0.7518,-0.04539539,-0.306115737
0.752,-0.04539539,0.047094729
0.7522,-0.04539539,-0.306115737
0.7524,-0.04539539,-0.306115737
0.7526,-0.04539539,0.047094729
0.7528,-0.010808426,-0.306115737
0.753,-0.04539539,-0.306115737
0.7532,-0.04539539,0.047094729
0.7534,-0.010808426,-0.306115737
0.7536,-0.010808426,-0.306115737
0.7538,-0.010808426,-0.306115737
0.754,-0.010808426,-0.306115737
0.7542,-0.010808426,-0.306115737
0.7544,-0.04539539,0.047094729
0.7546,-0.04539539,-0.306115737
0.7548,-0.010808426,-0.306115737
0.755,-0.04539539,-0.306115737
0.7552,-0.010808426,0.047094729
0.7554,-0.010808426,-0.306115737
0.7556,-0.010808426,-0.306115737
0.7558,-0.010808426,-0.306115737
0.756,-0.010808426,-0.306115737
0.7562,-0.010808426,-0.306115737
0.7564,-0.010808426,-0.306115737
0.7566,0.023778538,-0.306115737
0.7568,-0.010808426,-0.306115737
0.757,-0.010808426,-0.306115737
0.7572,-0.04539539,-0.306115737
0.7574,-0.04539539,-0.306115737
0.7576,-0.04539539,-0.306115737
0.7578,-0.010808426,-0.306115737
0.758,-0.04539539,0.047094729
0.7582,-0.04539539,-0.306115737
0.7584,-0.010808426,-0.306115737
0.7586,-0.04539539,0.047094729
0.7588,-0.010808426,-0.306115737
0.759,-0.010808426,-0.306115737
0.7592,-0.04539539,-0.306115737
0.7594,-0.010808426,0.047094729
0.7596,-0.04539539,-0.306115737
0.7598,-0.010808426,-0.306115737
0.76,-0.010808426,0.047094729
0.7602,-0.010808426,-0.306115737
0.7604,-0.010808426,-0.306115737
0.7606,-0.010808426,0.047094729
0.7608,-0.010808426,-0.306115737
0.761,-0.010808426,-0.306115737
0.7612,-0.010808426,-0.306115737
0.7614,-0.010808426,-0.306115737
0.7616,-0.010808426,-0.306115737
0.7618,-0.010808426,-0.306115737
0.762,-0.010808426,-0.306115737
0.7622,-0.010808426,-0.306115737
0.7624,-0.010808426,-0.306115737
0.7626,-0.010808426,0.047094729
0.7628,-0.010808426,0.047094729
0.763,-0.04539539,-0.306115737
0.7632,-0.010808426,-0.306115737
0.7634,-0.04539539,-0.306115737
0.7636,-0.010808426,-0.306115737
0.7638,-0.04539539,-0.306115737
0.764,-0.04539539,-0.306115737
0.7642,-0.010808426,0.047094729
0.7644,-0.010808426,-0.306115737
0.7646,-0.04539539,-0.306115737
0.7648,-0.04539539,0.047094729
0.765,-0.04539539,0.047094729
0.7652,-0.010808426,-0.306115737
0.7654,-0.010808426,-0.306115737
0.7656,-0.010808426,-0.306115737
0.7658,-0.010808426,-0.306115737
0.766,-0.04539539,-0.306115737
0.7662,0.023778538,-0.306115737
0.7664,0.023778538,-0.306115737
0.7666,0.023778538,-0.306115737
0.7668,0.023778538,-0.306115737
0.767,-0.010808426,-0.306115737
0.7672,-0.010808426,-0.306115737
0.7674,0.023778538,-0.306115737
0.7676,0.023778538,-0.306115737
0.7678,0.023778538,-0.306115737
0.768,0.023778538,-0.306115737
0.7682,0.023778538,-0.306115737
0.7684,0.023778538,-0.306115737
0.7686,-0.010808426,-0.306115737
0.7688,0.023778538,-0.306115737
0.769,0.023778538,0.047094729
0.7692,-0.010808426,-0.306115737
0.7694,0.023778538,-0.306115737
0.7696,0.023778538,-0.306115737
0.7698,0.058365502,-0.306115737
0.77,0.023778538,-0.306115737
0.7702,0.023778538,0.047094729
0.7704,0.058365502,-0.306115737
0.7706,0.023778538,-0.306115737
0.7708,0.058365502,-0.306115737
0.771,0.058365502,-0.306115737
0.7712,0.023778538,-0.306115737
0.7714,0.058365502,-0.306115737
0.7716,0.058365502,-0.306115737
0.7718,0.058365502,-0.306115737
0.772,0.058365502,-0.306115737
0.7722,0.058365502,-0.306115737
0.7724,0.058365502,-0.306115737
0.7726,0.058365502,-0.306115737
0.7728,0.058365502,-0.306115737
0.773,0.058365502,-0.306115737
0.7732,0.058365502,-0.306115737
0.7734,0.023778538,-0.306115737
0.7736,0.058365502,-0.306115737
0.7738,0.058365502,-0.306115737
0.774,0.058365502,-0.306115737
0.7742,0.092952466,-0.306115737
0.7744,0.058365502,0.047094729
0.7746,0.058365502,-0.306115737
0.7748,0.058365502,-0.306115737
0.775,0.058365502,-0.306115737
0.7752,0.058365502,-0.306115737
0.7754,0.058365502,-0.306115737
0.7756,0.058365502,-0.306115737
0.7758,0.058365502,-0.306115737
0.776,0.058365502,-0.306115737
0.7762,0.058365502,-0.306115737
0.7764,0.092952466,-0.306115737
0.7766,0.023778538,-0.306115737
0.7768,0.058365502,-0.306115737
0.777,0.058365502,-0.306115737
0.7772,0.023778538,-0.306115737
0.7774,0.023778538,-0.306115737
0.7776,-0.010808426,0.047094729
0.7778,-0.010808426,-0.306115737
0.778,-0.04539539,0.047094729
0.7782,-0.010808426,-0.306115737
0.7784,0.023778538,-0.306115737
0.7786,-0.010808426,-0.306115737
0.7788,-0.010808426,0.047094729
0.779,-0.010808426,-0.306115737
0.7792,-0.04539539,0.047094729
0.7794,-0.010808426,-0.306115737
0.7796,-0.04539539,-0.306115737
0.7798,-0.010808426,0.047094729
0.78,-0.010808426,-0.306115737
0.7802,-0.010808426,-0.306115737
0.7804,-0.04539539,0.047094729
0.7806,-0.010808426,0.047094729
0.7808,-0.04539539,-0.306115737
0.781,-0.04539539,-0.306115737
0.7812,-0.04539539,-0.306115737
0.7814,-0.010808426,-0.306115737
0.7816,-0.04539539,-0.306115737
0.7818,-0.010808426,0.047094729
0.782,-0.010808426,-0.306115737
0.7822,-0.04539539,0.047094729
0.7824,-0.04539539,0.047094729
0.7826,-0.04539539,0.047094729
0.7828,-0.04539539,-0.306115737
0.783,-0.04539539,-0.306115737
0.7832,-0.04539539,-0.306115737
0.7834,-0.04539539,0.047094729
0.7836,-0.010808426,-0.306115737
0.7838,-0.04539539,-0.306115737
0.784,-0.04539539,-0.306115737
0.7842,-0.04539539,0.047094729
0.7844,-0.04539539,-0.306115737
0.7846,-0.077820669,-0.306115737
0.7848,-0.04539539,-0.306115737
0.785,-0.04539539,-0.306115737
0.7852,-0.077820669,0.047094729
0.7854,-0.04539539,-0.306115737
0.7856,-0.04539539,-0.306115737
0.7858,-0.04539539,-0.306115737
0.786,-0.04539539,0.047094729
0.7862,-0.077820669,-0.306115737
0.7864,-0.04539539,-0.306115737
0.7866,-0.04539539,-0.306115737
0.7868,-0.04539539,-0.306115737
0.787,-0.04539539,-0.306115737
0.7872,-0.04539539,-0.306115737
0.7874,-0.04539539,-0.306115737
0.7876,-0.077820669,-0.306115737
0.7878,-0.04539539,-0.306115737
0.788,-0.04539539,-0.306115737
0.7882,-0.077820669,-0.306115737
0.7884,-0.04539539,-0.306115737
0.7886,-0.04539539,-0.306115737
0.7888,-0.04539539,-0.306115737
0.789,-0.04539539,-0.306115737
0.7892,-0.010808426,-0.306115737
0.7894,-0.04539539,-0.306115737
0.7896,-0.04539539,-0.306115737
0.7898,-0.010808426,-0.306115737
0.79,-0.04539539,-0.306115737
0.7902,-0.010808426,-0.306115737
0.7904,-0.010808426,-0.306115737
0.7906,-0.010808426,-0.306115737
0.7908,-0.04539539,-0.306115737
0.791,-0.04539539,-0.306115737
0.7912,-0.04539539,-0.306115737
0.7914,-0.010808426,-0.306115737
0.7916,-0.010808426,-0.306115737
0.7918,0.023778538,-0.306115737
0.792,-0.010808426,-0.306115737
0.7922,-0.010808426,-0.306115737
0.7924,0.023778538,-0.306115737
0.7926,-0.010808426,-0.306115737
0.7928,-0.010808426,-0.306115737
0.793,0.023778538,-0.306115737
0.7932,0.023778538,-0.306115737
0.7934,0.023778538,-0.306115737
0.7936,-0.010808426,-0.306115737
0.7938,0.023778538,-0.306115737
0.794,0.058365502,-0.306115737
0.7942,0.023778538,-0.306115737
0.7944,0.023778538,-0.306115737
0.7946,0.023778538,-0.306115737
0.7948,0.023778538,-0.306115737
0.795,-0.010808426,0.047094729
0.7952,0.058365502,-0.306115737
0.7954,-0.010808426,-0.306115737
0.7956,-0.010808426,-0.306115737
0.7958,0.058365502,-0.306115737
0.796,-0.010808426,-0.306115737
0.7962,-0.010808426,-0.306115737
0.7964,0.023778538,0.047094729
0.7966,0.023778538,-0.306115737
0.7968,-0.010808426,0.047094729
0.797,-0.010808426,-0.306115737
0.7972,0.058365502,-0.306115737
0.7974,-0.010808426,-0.306115737
0.7976,0.058365502,-0.306115737
0.7978,0.023778538,-0.306115737
0.798,0.023778538,-0.306115737
0.7982,0.058365502,0.047094729
0.7984,-0.010808426,-0.306115737
0.7986,-0.04539539,-0.306115737
0.7988,0.058365502,-0.306115737
0.799,-0.010808426,-0.306115737
0.7992,-0.010808426,-0.306115737
0.7994,0.023778538,-0.306115737
0.7996,0.023778538,-0.306115737
0.7998,-0.010808426,0.047094729
0.8,0.023778538,-0.306115737
0.8002,0.023778538,-0.306115737
0.8004,-0.010808426,-0.306115737
0.8006,0.058365502,-0.306115737
0.8008,0.023778538,-0.306115737
0.801,0.023778538,-0.306115737
0.8012,0.058365502,-0.306115737
0.8014,0.023778538,-0.306115737
0.8016,0.023778538,-0.306115737
0.8018,0.023778538,-0.306115737
0.802,0.058365502,-0.306115737
0.8022,0.023778538,-0.306115737
0.8024,-0.010808426,-0.306115737
0.8026,0.058365502,-0.306115737
0.8028,0.023778538,-0.306115737
0.803,-0.010808426,-0.306115737
0.8032,0.023778538,-0.306115737
0.8034,-0.010808426,-0.306115737
0.8036,0.023778538,-0.306115737
0.8038,0.023778538,-0.306115737
0.804,0.023778538,-0.306115737
0.8042,0.058365502,-0.306115737
0.8044,0.023778538,-0.306115737
0.8046,-0.010808426,-0.306115737
0.8048,0.023778538,-0.306115737
0.805,-0.010808426,-0.306115737
0.8052,-0.010808426,-0.306115737
0.8054,-0.010808426,-0.306115737
0.8056,-0.010808426,-0.306115737
0.8058,-0.04539539,-0.306115737
0.806,-0.010808426,-0.306115737
0.8062,0.023778538,-0.306115737
0.8064,-0.010808426,-0.306115737
0.8066,-0.010808426,-0.306115737
0.8068,0.023778538,-0.306115737
0.807,-0.010808426,-0.306115737
0.8072,-0.010808426,-0.306115737
0.8074,-0.010808426,-0.306115737
0.8076,0.023778538,-0.306115737
0.8078,-0.010808426,-0.306115737
0.808,-0.010808426,-0.306115737
0.8082,-0.010808426,-0.306115737
0.8084,-0.010808426,-0.306115737
0.8086,-0.010808426,-0.306115737
0.8088,-0.010808426,-0.306115737
0.809,-0.010808426,-0.306115737
0.8092,-0.010808426,-0.306115737
0.8094,0.023778538,-0.306115737
0.8096,-0.010808426,-0.306115737
0.8098,0.023778538,-0.306115737
0.81,-0.010808426,-0.306115737
0.8102,-0.010808426,-0.306115737
0.8104,0.023778538,-0.306115737
0.8106,-0.010808426,-0.306115737
0.8108,-0.04539539,-0.306115737
0.811,-0.010808426,-0.306115737
0.8112,-0.010808426,-0.306115737
0.8114,-0.010808426,-0.306115737
0.8116,-0.010808426,-0.306115737
0.8118,-0.010808426,-0.306115737
0.812,-0.010808426,-0.306115737
0.8122,-0.010808426,-0.306115737
0.8124,-0.010808426,-0.306115737
0.8126,-0.04539539,-0.306115737
0.8128,0.023778538,-0.306115737
0.813,-0.010808426,-0.306115737
0.8132,-0.010808426,-0.306115737
0.8134,-0.010808426,-0.306115737
0.8136,-0.010808426,-0.306115737
0.8138,-0.04539539,-0.306115737
0.814,-0.010808426,-0.306115737
0.8142,-0.010808426,-0.306115737
0.8144,-0.010808426,-0.306115737
0.8146,-0.010808426,-0.306115737
0.8148,-0.010808426,-0.306115737
0.815,-0.010808426,-0.306115737
0.8152,-0.010808426,-0.306115737
0.8154,-0.010808426,-0.306115737
0.8156,-0.010808426,-0.306115737
0.8158,0.023778538,-0.306115737
0.816,-0.010808426,-0.306115737
0.8162,-0.04539539,0.047094729
0.8164,-0.010808426,-0.306115737
0.8166,-0.010808426,-0.306115737
0.8168,-0.04539539,-0.306115737
0.817,-0.010808426,-0.306115737
0.8172,0.023778538,-0.306115737
0.8174,-0.010808426,-0.306115737
0.8176,-0.010808426,-0.306115737
0.8178,-0.010808426,-0.306115737
0.818,-0.04539539,-0.306115737
0.8182,-0.010808426,-0.306115737
0.8184,-0.010808426,-0.306115737
0.8186,-0.04539539,-0.306115737
0.8188,-0.04539539,-0.306115737
0.819,-0.04539539,-0.306115737
0.8192,-0.04539539,-0.306115737
0.8194,-0.010808426,-0.306115737
0.8196,-0.04539539,-0.306115737
0.8198,-0.04539539,-0.306115737
0.82,-0.04539539,-0.306115737
0.8202,-0.04539539,-0.306115737
0.8204,-0.04539539,-0.306115737
0.8206,-0.04539539,-0.306115737
0.8208,-0.04539539,-0.306115737
0.821,-0.04539539,-0.306115737
0.8212,-0.04539539,-0.306115737
0.8214,-0.04539539,-0.306115737
0.8216,-0.04539539,-0.306115737
0.8218,-0.010808426,-0.306115737
0.822,-0.010808426,-0.306115737
0.8222,-0.04539539,-0.306115737
0.8224,-0.010808426,-0.306115737
0.8226,-0.010808426,-0.306115737
0.8228,-0.04539539,-0.306115737
0.823,-0.010808426,-0.306115737
0.8232,-0.010808426,-0.306115737
0.8234,-0.010808426,-0.306115737
0.8236,-0.010808426,-0.306115737
0.8238,-0.010808426,-0.306115737
0.824,-0.010808426,-0.306115737
0.8242,-0.010808426,-0.306115737
0.8244,-0.010808426,-0.306115737
0.8246,-0.010808426,-0.306115737
0.8248,-0.010808426,-0.306115737
0.825,-0.04539539,-0.306115737
0.8252,-0.04539539,-0.306115737
0.8254,-0.010808426,-0.306115737
0.8256,-0.010808426,-0.306115737
0.8258,-0.04539539,-0.306115737
0.826,-0.010808426,-0.306115737
0.8262,-0.010808426,-0.306115737
0.8264,-0.04539539,-0.306115737
0.8266,-0.04539539,-0.306115737
0.8268,-0.010808426,-0.306115737
0.827,-0.010808426,-0.306115737
0.8272,-0.010808426,-0.306115737
0.8274,-0.010808426,-0.306115737
0.8276,-0.010808426,-0.306115737
0.8278,-0.010808426,-0.306115737
0.828,0.023778538,-0.306115737
0.8282,0.023778538,-0.306115737
0.8284,-0.010808426,-0.306115737
0.8286,0.023778538,-0.306115737
0.8288,-0.010808426,-0.306115737
0.829,-0.010808426,-0.306115737
0.8292,-0.010808426,-0.306115737
0.8294,-0.010808426,-0.306115737
0.8296,-0.010808426,-0.306115737
0.8298,0.023778538,-0.306115737
0.83,0.023778538,-0.306115737
0.8302,0.023778538,-0.306115737
0.8304,0.058365502,-0.306115737
0.8306,-0.010808426,0.047094729
0.8308,0.023778538,-0.306115737
0.831,-0.010808426,-0.306115737
0.8312,-0.010808426,-0.306115737
0.8314,-0.010808426,-0.306115737
0.8316,-0.010808426,-0.306115737
0.8318,-0.010808426,-0.306115737
0.832,-0.010808426,-0.306115737
0.8322,-0.010808426,-0.306115737
0.8324,-0.010808426,-0.306115737
0.8326,-0.010808426,-0.306115737
0.8328,-0.010808426,-0.306115737
0.833,0.023778538,-0.306115737
0.8332,-0.010808426,-0.306115737
0.8334,-0.010808426,-0.306115737
0.8336,0.023778538,-0.306115737
0.8338,0.023778538,-0.306115737
0.834,0.023778538,-0.306115737
0.8342,-0.010808426,-0.306115737
0.8344,-0.010808426,-0.306115737
0.8346,-0.010808426,0.047094729
0.8348,-0.010808426,-0.306115737
0.835,-0.010808426,-0.306115737
0.8352,-0.010808426,-0.306115737
0.8354,-0.010808426,-0.306115737
0.8356,-0.010808426,-0.306115737
0.8358,-0.010808426,-0.306115737
0.836,0.023778538,-0.306115737
0.8362,-0.010808426,-0.306115737
0.8364,-0.010808426,-0.306115737
0.8366,-0.010808426,-0.306115737
0.8368,-0.010808426,-0.306115737
0.837,-0.010808426,-0.306115737
0.8372,-0.010808426,-0.306115737
0.8374,-0.010808426,0.047094729
0.8376,0.023778538,-0.306115737
0.8378,-0.010808426,-0.306115737
0.838,-0.010808426,-0.306115737
0.8382,-0.010808426,-0.306115737
0.8384,-0.010808426,-0.306115737
0.8386,-0.04539539,-0.306115737
0.8388,-0.010808426,-0.306115737
0.839,0.058365502,-0.306115737
0.8392,-0.010808426,-0.306115737
0.8394,-0.010808426,-0.306115737
0.8396,-0.010808426,-0.306115737
0.8398,-0.010808426,-0.306115737
0.84,-0.010808426,-0.306115737
0.8402,0.023778538,-0.306115737
0.8404,0.023778538,-0.306115737
0.8406,-0.010808426,-0.306115737
0.8408,0.023778538,-0.306115737
0.841,-0.010808426,-0.306115737
0.8412,-0.010808426,-0.306115737
0.8414,0.023778538,-0.306115737
0.8416,-0.010808426,-0.306115737
0.8418,-0.010808426,-0.306115737
0.842,-0.010808426,-0.306115737
0.8422,-0.04539539,-0.306115737
0.8424,-0.010808426,-0.306115737
0.8426,-0.010808426,-0.306115737
0.8428,-0.04539539,-0.306115737
0.843,-0.010808426,-0.306115737
0.8432,-0.010808426,-0.306115737
0.8434,-0.04539539,-0.306115737
0.8436,-0.010808426,-0.306115737
0.8438,-0.010808426,-0.306115737
0.844,-0.04539539,-0.306115737
0.8442,-0.010808426,-0.306115737
0.8444,-0.04539539,-0.306115737
0.8446,-0.010808426,-0.306115737
0.8448,-0.010808426,-0.306115737
0.845,-0.010808426,-0.306115737
0.8452,-0.04539539,-0.306115737
0.8454,-0.010808426,-0.306115737
0.8456,-0.010808426,-0.306115737
0.8458,-0.010808426,-0.306115737
0.846,-0.010808426,-0.306115737
0.8462,-0.010808426,0.047094729
0.8464,-0.010808426,-0.306115737
0.8466,-0.010808426,-0.306115737
0.8468,-0.010808426,-0.306115737
0.847,-0.010808426,-0.306115737
0.8472,-0.010808426,-0.306115737
0.8474,-0.010808426,-0.306115737
0.8476,-0.010808426,-0.306115737
0.8478,-0.010808426,-0.306115737
0.848,-0.010808426,-0.306115737
0.8482,-0.010808426,-0.306115737
0.8484,-0.04539539,-0.306115737
0.8486,-0.010808426,-0.306115737
0.8488,-0.04539539,-0.306115737
0.849,-0.010808426,-0.306115737
0.8492,-0.010808426,-0.306115737
0.8494,-0.010808426,-0.306115737
0.8496,-0.010808426,-0.306115737
0.8498,-0.010808426,-0.306115737
0.85,-0.04539539,-0.306115737
0.8502,-0.010808426,-0.306115737
0.8504,0.023778538,-0.306115737
0.8506,0.023778538,-0.306115737
0.8508,-0.010808426,-0.306115737
0.851,-0.010808426,-0.306115737
0.8512,-0.010808426,-0.306115737
0.8514,-0.010808426,-0.306115737
0.8516,-0.010808426,-0.306115737
0.8518,-0.010808426,-0.306115737
0.852,-0.010808426,-0.306115737
0.8522,-0.010808426,-0.306115737
0.8524,0.023778538,-0.306115737
0.8526,-0.010808426,-0.306115737
0.8528,-0.010808426,-0.306115737
0.853,0.023778538,-0.306115737
0.8532,-0.010808426,0.047094729
0.8534,0.058365502,-0.306115737
0.8536,0.023778538,-0.306115737
0.8538,-0.010808426,-0.306115737
0.854,0.023778538,-0.306115737
0.8542,0.023778538,-0.306115737
0.8544,-0.010808426,-0.306115737
0.8546,0.023778538,-0.306115737
0.8548,0.023778538,-0.306115737
0.855,-0.010808426,-0.306115737
0.8552,-0.010808426,-0.306115737
0.8554,-0.010808426,-0.306115737
0.8556,-0.010808426,-0.306115737
0.8558,-0.010808426,-0.306115737
0.856,0.023778538,-0.306115737
0.8562,-0.010808426,-0.306115737
0.8564,-0.010808426,-0.306115737
0.8566,0.023778538,-0.306115737
0.8568,-0.010808426,-0.306115737
0.857,-0.010808426,-0.306115737
0.8572,-0.010808426,-0.306115737
0.8574,-0.010808426,-0.306115737
0.8576,-0.010808426,-0.306115737
0.8578,0.023778538,-0.306115737
0.858,-0.010808426,-0.306115737
0.8582,-0.010808426,-0.306115737
0.8584,-0.010808426,-0.306115737
0.8586,-0.04539539,-0.306115737
0.8588,-0.010808426,-0.306115737
0.859,-0.010808426,-0.306115737
0.8592,-0.010808426,0.047094729
0.8594,-0.010808426,0.047094729
0.8596,-0.010808426,-0.306115737
0.8598,-0.04539539,-0.306115737
0.86,-0.010808426,-0.306115737
0.8602,-0.010808426,-0.306115737
0.8604,-0.04539539,-0.306115737
0.8606,-0.04539539,0.047094729
0.8608,-0.010808426,-0.306115737
0.861,-0.04539539,-0.306115737
0.8612,-0.010808426,-0.306115737
0.8614,-0.010808426,-0.306115737
0.8616,-0.04539539,-0.306115737
0.8618,-0.010808426,-0.306115737
0.862,-0.04539539,-0.306115737
0.8622,-0.04539539,-0.306115737
0.8624,-0.010808426,-0.306115737
0.8626,-0.04539539,-0.306115737
0.8628,-0.04539539,-0.306115737
0.863,-0.010808426,-0.306115737
0.8632,-0.010808426,-0.306115737
0.8634,-0.04539539,-0.306115737
0.8636,-0.010808426,-0.306115737
0.8638,-0.010808426,-0.306115737
0.864,-0.04539539,-0.306115737
0.8642,-0.010808426,-0.306115737
0.8644,-0.010808426,-0.306115737
0.8646,-0.04539539,-0.306115737
0.8648,-0.010808426,-0.306115737
0.865,-0.04539539,-0.306115737
0.8652,-0.04539539,-0.306115737
0.8654,-0.010808426,-0.306115737
0.8656,-0.04539539,-0.306115737
0.8658,-0.04539539,-0.306115737
0.866,-0.010808426,-0.306115737
0.8662,-0.010808426,-0.306115737
0.8664,-0.04539539,-0.306115737
0.8666,-0.010808426,-0.306115737
0.8668,-0.010808426,-0.306115737
0.867,-0.010808426,-0.306115737
0.8672,-0.04539539,-0.306115737
0.8674,-0.04539539,-0.306115737
0.8676,-0.04539539,-0.306115737
0.8678,-0.04539539,-0.306115737
0.868,-0.010808426,-0.306115737
0.8682,-0.04539539,-0.306115737
0.8684,-0.010808426,-0.306115737
0.8686,-0.010808426,-0.306115737
0.8688,-0.010808426,-0.306115737
0.869,0.023778538,-0.306115737
0.8692,0.023778538,-0.306115737
0.8694,-0.010808426,-0.306115737
0.8696,-0.010808426,-0.306115737
0.8698,0.023778538,-0.306115737
0.87,-0.010808426,-0.306115737
0.8702,-0.010808426,-0.306115737
0.8704,-0.010808426,-0.306115737
0.8706,-0.010808426,-0.306115737
0.8708,0.023778538,-0.306115737
0.871,0.023778538,-0.306115737
0.8712,-0.010808426,-0.306115737
0.8714,0.023778538,-0.306115737
0.8716,0.023778538,-0.306115737
0.8718,0.023778538,-0.306115737
0.872,0.023778538,-0.306115737
0.8722,0.023778538,-0.306115737
0.8724,0.023778538,-0.306115737
0.8726,-0.010808426,-0.306115737
0.8728,0.058365502,-0.306115737
0.873,0.023778538,-0.306115737
0.8732,0.023778538,-0.306115737
0.8734,0.058365502,-0.306115737
0.8736,-0.010808426,-0.306115737
0.8738,0.023778538,-0.306115737
0.874,0.023778538,-0.306115737
0.8742,0.023778538,-0.306115737
0.8744,0.058365502,-0.306115737
0.8746,0.058365502,-0.306115737
0.8748,-0.010808426,-0.306115737
0.875,-0.010808426,-0.306115737
0.8752,0.023778538,-0.306115737
0.8754,-0.010808426,-0.306115737
0.8756,-0.010808426,-0.306115737
0.8758,0.023778538,-0.306115737
0.876,-0.010808426,-0.306115737
0.8762,-0.010808426,-0.306115737
0.8764,0.023778538,-0.306115737
0.8766,-0.010808426,-0.306115737
0.8768,-0.010808426,-0.306115737
0.877,0.023778538,-0.306115737
0.8772,0.023778538,-0.306115737
0.8774,-0.010808426,-0.306115737
0.8776,0.023778538,-0.306115737
0.8778,0.058365502,-0.306115737
0.878,-0.010808426,-0.306115737
0.8782,-0.010808426,-0.306115737
0.8784,-0.010808426,-0.306115737
0.8786,-0.04539539,-0.306115737
0.8788,0.023778538,-0.306115737
0.879,0.023778538,-0.306115737
0.8792,0.023778538,-0.306115737
0.8794,-0.010808426,-0.306115737
0.8796,0.023778538,-0.306115737
0.8798,-0.010808426,0.047094729
0.88,0.023778538,-0.306115737
0.8802,-0.010808426,-0.306115737
0.8804,-0.010808426,-0.306115737
0.8806,-0.010808426,-0.306115737
0.8808,-0.010808426,-0.306115737
0.881,-0.010808426,-0.306115737
0.8812,-0.010808426,-0.306115737
0.8814,-0.010808426,-0.306115737
0.8816,-0.04539539,-0.306115737
0.8818,-0.010808426,-0.306115737
0.882,-0.04539539,-0.306115737
0.8822,-0.010808426,-0.306115737
0.8824,-0.04539539,-0.306115737
0.8826,-0.04539539,-0.306115737
0.8828,-0.04539539,-0.306115737
0.883,-0.04539539,-0.306115737
0.8832,-0.04539539,-0.306115737
0.8834,-0.04539539,-0.306115737
0.8836,-0.010808426,-0.306115737
0.8838,-0.04539539,-0.306115737
0.884,-0.04539539,-0.306115737
0.8842,-0.010808426,-0.306115737
0.8844,-0.010808426,-0.306115737
0.8846,-0.04539539,-0.306115737
0.8848,-0.010808426,-0.306115737
0.885,-0.010808426,-0.306115737
0.8852,-0.04539539,-0.306115737
0.8854,-0.010808426,-0.306115737
0.8856,-0.010808426,-0.306115737
0.8858,-0.010808426,-0.306115737
0.886,-0.010808426,-0.306115737
0.8862,-0.010808426,-0.306115737
0.8864,-0.04539539,-0.306115737
0.8866,-0.010808426,-0.306115737
0.8868,-0.04539539,-0.306115737
0.887,-0.04539539,-0.306115737
0.8872,-0.010808426,-0.306115737
0.8874,-0.010808426,-0.306115737
0.8876,-0.010808426,-0.306115737
0.8878,-0.010808426,-0.306115737
0.888,-0.010808426,-0.306115737
0.8882,-0.04539539,-0.306115737
0.8884,-0.010808426,-0.306115737
0.8886,-0.010808426,-0.306115737
0.8888,-0.010808426,-0.306115737
0.889,-0.010808426,-0.306115737
0.8892,-0.010808426,-0.306115737
0.8894,-0.010808426,-0.306115737
0.8896,-0.010808426,-0.306115737
0.8898,-0.010808426,-0.306115737
0.89,-0.010808426,-0.306115737
0.8902,-0.010808426,-0.306115737
0.8904,-0.010808426,-0.306115737
0.8906,-0.010808426,-0.306115737
0.8908,-0.010808426,-0.306115737
0.891,-0.010808426,-0.306115737
0.8912,-0.010808426,-0.306115737
0.8914,-0.04539539,-0.306115737
0.8916,-0.04539539,-0.306115737
0.8918,-0.04539539,-0.306115737
0.892,-0.010808426,-0.306115737
0.8922,-0.04539539,-0.306115737
0.8924,-0.010808426,-0.306115737
0.8926,-0.010808426,-0.306115737
0.8928,-0.010808426,-0.306115737
0.893,-0.010808426,-0.306115737
0.8932,-0.010808426,-0.306115737
0.8934,-0.010808426,-0.306115737
0.8936,-0.010808426,-0.306115737
0.8938,-0.010808426,-0.306115737
0.894,-0.010808426,-0.306115737
0.8942,-0.04539539,-0.306115737
0.8944,-0.010808426,-0.306115737
0.8946,-0.010808426,-0.306115737
0.8948,-0.010808426,-0.306115737
0.895,-0.010808426,-0.306115737
0.8952,0.023778538,-0.306115737
0.8954,0.023778538,-0.306115737
0.8956,0.023778538,-0.306115737
0.8958,0.058365502,-0.306115737
0.896,0.023778538,-0.306115737
0.8962,-0.010808426,0.047094729
0.8964,-0.010808426,-0.306115737
0.8966,-0.010808426,-0.306115737
0.8968,-0.010808426,-0.306115737
0.897,-0.010808426,-0.306115737
0.8972,-0.010808426,-0.306115737
0.8974,-0.04539539,-0.306115737
0.8976,-0.010808426,-0.306115737
0.8978,-0.010808426,-0.306115737
0.898,-0.010808426,-0.306115737
0.8982,-0.010808426,-0.306115737
0.8984,-0.010808426,-0.306115737
0.8986,0.023778538,-0.306115737
0.8988,-0.010808426,-0.306115737
0.899,-0.04539539,-0.306115737
0.8992,-0.04539539,-0.306115737
0.8994,-0.04539539,-0.306115737
0.8996,-0.04539539,-0.306115737
0.8998,-0.04539539,-0.306115737
0.9,-0.010808426,-0.306115737
0.9002,-0.04539539,-0.306115737
0.9004,-0.04539539,-0.306115737
0.9006,-0.04539539,-0.306115737
0.9008,-0.04539539,-0.306115737
0.901,-0.04539539,-0.306115737
0.9012,-0.04539539,-0.306115737
0.9014,-0.010808426,-0.306115737
0.9016,-0.04539539,-0.306115737
0.9018,-0.010808426,-0.306115737
0.902,-0.010808426,-0.306115737
0.9022,-0.04539539,-0.306115737
0.9024,-0.010808426,-0.306115737
0.9026,-0.010808426,-0.306115737
0.9028,-0.04539539,-0.306115737
0.903,-0.04539539,-0.306115737
0.9032,-0.010808426,-0.306115737
0.9034,-0.010808426,-0.306115737
0.9036,-0.010808426,-0.306115737
0.9038,-0.010808426,-0.306115737
0.904,-0.04539539,-0.306115737
0.9042,-0.010808426,-0.306115737
0.9044,-0.010808426,-0.306115737
0.9046,-0.04539539,-0.306115737
0.9048,-0.010808426,-0.306115737
0.905,-0.010808426,-0.306115737
0.9052,-0.04539539,-0.306115737
0.9054,-0.010808426,-0.306115737
0.9056,0.023778538,-0.306115737
0.9058,-0.04539539,-0.306115737
0.906,0.023778538,-0.306115737
0.9062,-0.010808426,-0.306115737
0.9064,-0.010808426,-0.306115737
0.9066,-0.010808426,-0.306115737
0.9068,0.023778538,-0.306115737
0.907,-0.010808426,-0.306115737
0.9072,-0.010808426,-0.306115737
0.9074,0.058365502,-0.306115737
0.9076,0.023778538,-0.306115737
0.9078,-0.010808426,-0.306115737
0.908,0.023778538,-0.306115737
0.9082,-0.010808426,-0.306115737
0.9084,0.023778538,-0.306115737
0.9086,0.023778538,-0.306115737
0.9088,0.023778538,-0.306115737
0.909,0.058365502,-0.306115737
0.9092,0.023778538,-0.306115737
0.9094,0.023778538,-0.306115737
0.9096,0.058365502,-0.306115737
0.9098,0.023778538,-0.306115737
0.91,0.023778538,-0.306115737
0.9102,0.058365502,-0.306115737
0.9104,0.058365502,-0.306115737
0.9106,0.023778538,-0.306115737
0.9108,0.058365502,-0.306115737
0.911,0.023778538,-0.306115737
0.9112,-0.010808426,-0.306115737
0.9114,0.023778538,-0.306115737
0.9116,0.023778538,-0.306115737
0.9118,0.023778538,-0.306115737
0.912,0.023778538,-0.306115737
0.9122,-0.010808426,-0.306115737
0.9124,-0.010808426,-0.306115737
0.9126,-0.04539539,-0.306115737
0.9128,0.023778538,-0.306115737
0.913,-0.010808426,-0.306115737
0.9132,0.023778538,-0.306115737
0.9134,-0.010808426,-0.306115737
0.9136,0.023778538,-0.306115737
0.9138,-0.010808426,-0.306115737
0.914,0.023778538,-0.306115737
0.9142,0.023778538,-0.306115737
0.9144,-0.010808426,-0.306115737
0.9146,0.023778538,-0.306115737
0.9148,-0.010808426,-0.306115737
0.915,-0.010808426,-0.306115737
0.9152,0.023778538,-0.306115737
0.9154,-0.010808426,-0.306115737
0.9156,-0.010808426,-0.306115737
0.9158,0.023778538,-0.306115737
0.916,-0.04539539,-0.306115737
0.9162,-0.04539539,-0.306115737
0.9164,-0.04539539,-0.306115737
0.9166,0.023778538,-0.306115737
0.9168,-0.010808426,-0.306115737
0.917,-0.010808426,-0.306115737
0.9172,0.023778538,-0.306115737
0.9174,-0.010808426,-0.306115737
0.9176,-0.010808426,-0.306115737
0.9178,-0.010808426,-0.306115737
0.918,-0.010808426,-0.306115737
0.9182,-0.010808426,-0.306115737
0.9184,-0.010808426,-0.306115737
0.9186,-0.04539539,-0.306115737
0.9188,-0.010808426,-0.306115737
0.919,-0.010808426,-0.306115737
0.9192,-0.04539539,-0.306115737
0.9194,-0.04539539,-0.306115737
0.9196,-0.04539539,-0.306115737
0.9198,-0.04539539,-0.306115737
0.92,-0.010808426,-0.306115737
0.9202,-0.04539539,-0.306115737
0.9204,-0.04539539,-0.306115737
0.9206,-0.010808426,-0.306115737
0.9208,-0.04539539,-0.306115737
0.921,-0.04539539,-0.306115737
0.9212,-0.04539539,-0.306115737
0.9214,-0.04539539,-0.306115737
0.9216,-0.04539539,-0.306115737
0.9218,-0.04539539,-0.306115737
0.922,-0.04539539,-0.306115737
0.9222,-0.04539539,-0.306115737
0.9224,-0.04539539,-0.306115737
0.9226,-0.04539539,-0.306115737
0.9228,-0.04539539,-0.306115737
0.923,-0.010808426,-0.306115737
0.9232,-0.04539539,-0.306115737
0.9234,-0.077820669,-0.306115737
0.9236,-0.04539539,-0.306115737
0.9238,-0.04539539,-0.306115737
0.924,-0.04539539,-0.306115737
0.9242,-0.04539539,-0.306115737
0.9244,-0.04539539,-0.306115737
0.9246,-0.04539539,-0.306115737
0.9248,-0.04539539,-0.306115737
0.925,-0.04539539,-0.306115737
0.9252,-0.04539539,-0.306115737
0.9254,-0.010808426,-0.306115737
0.9256,-0.04539539,-0.306115737
0.9258,-0.04539539,-0.306115737
0.926,-0.010808426,-0.306115737
0.9262,-0.04539539,-0.306115737
0.9264,-0.04539539,-0.306115737
0.9266,-0.010808426,-0.306115737
0.9268,-0.010808426,-0.306115737
0.927,-0.04539539,-0.306115737
0.9272,-0.010808426,-0.306115737
0.9274,0.023778538,-0.306115737
0.9276,-0.04539539,-0.306115737
0.9278,0.023778538,-0.306115737
0.928,0.023778538,-0.306115737
0.9282,-0.04539539,-0.306115737
0.9284,0.023778538,-0.306115737
0.9286,-0.010808426,-0.306115737
0.9288,-0.010808426,-0.306115737
0.929,-0.010808426,-0.306115737
0.9292,-0.010808426,-0.306115737
0.9294,-0.010808426,-0.306115737
0.9296,-0.010808426,-0.306115737
0.9298,-0.010808426,-0.306115737
0.93,0.023778538,-0.306115737
0.9302,-0.010808426,-0.306115737
0.9304,-0.010808426,-0.306115737
0.9306,-0.010808426,-0.306115737
0.9308,0.023778538,-0.306115737
0.931,0.023778538,-0.306115737
0.9312,-0.010808426,-0.306115737
0.9314,0.058365502,-0.306115737
0.9316,0.023778538,-0.306115737
0.9318,-0.010808426,-0.306115737
0.932,0.023778538,-0.306115737
0.9322,0.058365502,-0.306115737
0.9324,-0.010808426,-0.306115737
0.9326,0.023778538,-0.306115737
0.9328,0.058365502,-0.306115737
0.933,0.023778538,-0.306115737
0.9332,-0.010808426,-0.306115737
0.9334,0.058365502,-0.306115737
0.9336,0.023778538,-0.306115737
0.9338,-0.010808426,-0.306115737
0.934,0.058365502,-0.306115737
0.9342,0.023778538,-0.306115737
0.9344,-0.010808426,-0.306115737
0.9346,0.023778538,-0.306115737
0.9348,-0.010808426,-0.306115737
0.935,-0.010808426,-0.306115737
0.9352,0.023778538,-0.306115737
0.9354,-0.010808426,-0.306115737
0.9356,0.023778538,-0.306115737
0.9358,0.023778538,-0.306115737
0.936,0.023778538,-0.306115737
0.9362,0.023778538,-0.306115737
0.9364,0.023778538,-0.306115737
0.9366,-0.04539539,-0.306115737
0.9368,-0.010808426,-0.306115737
0.937,-0.010808426,-0.306115737
0.9372,-0.010808426,-0.306115737
0.9374,-0.010808426,-0.306115737
0.9376,0.023778538,-0.306115737
0.9378,0.023778538,-0.306115737
0.938,-0.010808426,-0.306115737
0.9382,-0.010808426,-0.306115737
0.9384,0.023778538,-0.306115737
0.9386,-0.010808426,-0.306115737
0.9388,-0.010808426,-0.306115737
0.939,-0.010808426,-0.306115737
0.9392,-0.010808426,-0.306115737
0.9394,0.058365502,-0.306115737
0.9396,0.023778538,-0.306115737
0.9398,-0.010808426,-0.306115737
0.94,-0.010808426,-0.306115737
0.9402,-0.04539539,-0.306115737
0.9404,-0.010808426,-0.306115737
0.9406,0.023778538,0.047094729
0.9408,-0.010808426,-0.306115737
0.941,-0.010808426,-0.306115737
0.9412,-0.010808426,-0.306115737
0.9414,-0.010808426,-0.306115737
0.9416,-0.010808426,-0.306115737
0.9418,-0.010808426,-0.306115737
0.942,-0.010808426,-0.306115737
0.9422,-0.04539539,-0.306115737
0.9424,-0.010808426,-0.306115737
0.9426,-0.010808426,-0.306115737
0.9428,-0.04539539,-0.306115737
0.943,-0.010808426,-0.306115737
0.9432,-0.010808426,-0.306115737
0.9434,-0.04539539,0.047094729
0.9436,-0.010808426,-0.306115737
0.9438,-0.010808426,-0.306115737
0.944,-0.04539539,-0.306115737
0.9442,-0.010808426,-0.306115737
0.9444,-0.010808426,-0.306115737
0.9446,-0.04539539,-0.306115737
0.9448,-0.010808426,-0.306115737
0.945,-0.04539539,-0.306115737
0.9452,-0.04539539,-0.306115737
0.9454,-0.010808426,-0.306115737
0.9456,-0.010808426,-0.306115737
0.9458,-0.010808426,-0.306115737
0.946,-0.010808426,-0.306115737
0.9462,-0.010808426,-0.306115737
0.9464,-0.04539539,-0.306115737
0.9466,-0.010808426,-0.306115737
0.9468,-0.010808426,-0.306115737
0.947,-0.010808426,-0.306115737
0.9472,-0.010808426,-0.306115737
0.9474,-0.010808426,-0.306115737
0.9476,-0.010808426,0.047094729
0.9478,0.023778538,-0.306115737
0.948,0.023778538,-0.306115737
0.9482,-0.010808426,-0.306115737
0.9484,-0.010808426,-0.306115737
0.9486,-0.010808426,-0.306115737
0.9488,0.023778538,-0.306115737
0.949,0.023778538,-0.306115737
0.9492,-0.010808426,-0.306115737
0.9494,-0.010808426,-0.306115737
0.9496,-0.010808426,-0.306115737
0.9498,-0.010808426,-0.306115737
0.95,-0.04539539,-0.306115737
0.9502,-0.010808426,-0.306115737
0.9504,-0.010808426,-0.306115737
0.9506,-0.010808426,-0.306115737
0.9508,-0.010808426,-0.306115737
0.951,-0.010808426,-0.306115737
0.9512,-0.010808426,-0.306115737
0.9514,-0.010808426,-0.306115737
0.9516,-0.010808426,-0.306115737
0.9518,-0.04539539,-0.306115737
0.952,-0.04539539,-0.306115737
0.9522,-0.04539539,-0.306115737
0.9524,-0.04539539,0.047094729
0.9526,-0.010808426,-0.306115737
0.9528,-0.010808426,-0.306115737
0.953,-0.010808426,-0.306115737
0.9532,-0.010808426,-0.306115737
0.9534,-0.010808426,-0.306115737
0.9536,-0.04539539,-0.306115737
0.9538,-0.04539539,-0.306115737
0.954,-0.010808426,-0.306115737
0.9542,-0.04539539,-0.306115737
0.9544,-0.010808426,-0.306115737
0.9546,-0.010808426,-0.306115737
0.9548,-0.04539539,-0.306115737
0.955,-0.04539539,-0.306115737
0.9552,-0.04539539,-0.306115737
0.9554,-0.04539539,-0.306115737
0.9556,-0.04539539,-0.306115737
0.9558,-0.04539539,-0.306115737
0.956,-0.04539539,-0.306115737
0.9562,-0.04539539,-0.306115737
0.9564,-0.04539539,0.047094729
0.9566,-0.04539539,-0.306115737
0.9568,-0.04539539,-0.306115737
0.957,-0.04539539,-0.306115737
0.9572,-0.077820669,-0.306115737
0.9574,-0.04539539,-0.306115737
0.9576,-0.04539539,-0.306115737
0.9578,-0.04539539,-0.306115737
0.958,-0.04539539,-0.306115737
0.9582,-0.04539539,-0.306115737
0.9584,-0.077820669,-0.306115737
0.9586,-0.04539539,-0.306115737
0.9588,-0.077820669,-0.306115737
0.959,-0.077820669,-0.306115737
0.9592,-0.04539539,-0.306115737
0.9594,-0.04539539,-0.306115737
0.9596,-0.04539539,-0.306115737
0.9598,-0.04539539,-0.306115737
0.96,-0.04539539,-0.306115737
0.9602,-0.04539539,-0.306115737
0.9604,-0.04539539,-0.306115737
0.9606,-0.04539539,-0.306115737
0.9608,-0.010808426,-0.306115737
0.961,-0.010808426,-0.306115737
0.9612,-0.010808426,-0.306115737
0.9614,-0.010808426,-0.306115737
0.9616,-0.04539539,-0.306115737
0.9618,-0.010808426,-0.306115737
0.962,-0.04539539,-0.306115737
0.9622,-0.04539539,-0.306115737
0.9624,-0.010808426,-0.306115737
0.9626,-0.04539539,-0.306115737
0.9628,-0.010808426,-0.306115737
0.963,-0.010808426,-0.306115737
0.9632,-0.010808426,-0.306115737
0.9634,-0.04539539,-0.306115737
0.9636,-0.010808426,-0.306115737
0.9638,-0.010808426,-0.306115737
0.964,-0.010808426,-0.306115737
0.9642,-0.010808426,-0.306115737
0.9644,-0.010808426,-0.306115737
0.9646,-0.010808426,-0.306115737
0.9648,0.023778538,-0.306115737
0.965,0.023778538,-0.306115737
0.9652,-0.010808426,-0.306115737
0.9654,-0.010808426,-0.306115737
0.9656,0.023778538,-0.306115737
0.9658,0.023778538,-0.306115737
0.966,0.023778538,-0.306115737
0.9662,0.023778538,-0.306115737
0.9664,-0.010808426,-0.306115737
0.9666,-0.010808426,-0.306115737
0.9668,0.023778538,-0.306115737
0.967,-0.010808426,-0.306115737
0.9672,0.023778538,-0.306115737
0.9674,0.058365502,-0.306115737
0.9676,0.023778538,-0.306115737
0.9678,0.058365502,-0.306115737
0.968,0.058365502,-0.306115737
0.9682,0.023778538,-0.306115737
0.9684,0.058365502,-0.306115737
0.9686,0.058365502,-0.306115737
0.9688,0.023778538,-0.306115737
0.969,0.058365502,-0.306115737
0.9692,0.023778538,-0.306115737
0.9694,-0.010808426,-0.306115737
0.9696,0.023778538,-0.306115737
0.9698,0.023778538,-0.306115737
0.97,0.023778538,-0.306115737
0.9702,0.058365502,-0.306115737
0.9704,0.023778538,-0.306115737
0.9706,-0.010808426,-0.306115737
0.9708,0.023778538,-0.306115737
0.971,0.023778538,-0.306115737
0.9712,-0.010808426,-0.306115737
0.9714,-0.010808426,-0.306115737
0.9716,-0.010808426,-0.306115737
0.9718,-0.010808426,-0.306115737
0.972,-0.010808426,-0.306115737
0.9722,0.023778538,-0.306115737
0.9724,-0.010808426,-0.306115737
0.9726,0.023778538,-0.306115737
0.9728,0.023778538,-0.306115737
0.973,0.023778538,-0.306115737
0.9732,0.023778538,-0.306115737
0.9734,0.023778538,-0.306115737
0.9736,-0.04539539,0.047094729
0.9738,-0.010808426,-0.306115737
0.974,-0.010808426,-0.306115737
0.9742,-0.04539539,-0.306115737
0.9744,-0.010808426,-0.306115737
0.9746,-0.010808426,-0.306115737
0.9748,-0.04539539,-0.306115737
0.975,-0.010808426,0.047094729
0.9752,-0.010808426,-0.306115737
0.9754,-0.010808426,-0.306115737
0.9756,-0.04539539,-0.306115737
0.9758,-0.010808426,-0.306115737
0.976,-0.04539539,-0.306115737
0.9762,-0.010808426,-0.306115737
0.9764,-0.010808426,-0.306115737
0.9766,-0.04539539,-0.306115737
0.9768,-0.010808426,-0.306115737
0.977,-0.04539539,-0.306115737
0.9772,-0.04539539,-0.306115737
0.9774,-0.010808426,-0.306115737
0.9776,-0.04539539,-0.306115737
0.9778,-0.04539539,-0.306115737
0.978,-0.010808426,-0.306115737
0.9782,-0.010808426,-0.306115737
0.9784,-0.04539539,-0.306115737
0.9786,-0.04539539,-0.306115737
0.9788,-0.04539539,-0.306115737
0.979,-0.04539539,-0.306115737
0.9792,-0.04539539,-0.306115737
0.9794,-0.04539539,-0.306115737
0.9796,-0.010808426,-0.306115737
0.9798,-0.04539539,-0.306115737
0.98,-0.04539539,-0.306115737
0.9802,-0.04539539,-0.306115737
0.9804,-0.04539539,-0.306115737
0.9806,-0.077820669,-0.306115737
0.9808,-0.04539539,-0.306115737
0.981,-0.04539539,-0.306115737
0.9812,-0.077820669,-0.306115737
0.9814,-0.04539539,-0.306115737
0.9816,-0.010808426,-0.306115737
0.9818,-0.04539539,-0.306115737
0.982,-0.04539539,-0.306115737
0.9822,-0.04539539,-0.306115737
0.9824,-0.04539539,-0.306115737
0.9826,-0.04539539,-0.306115737
0.9828,-0.04539539,-0.306115737
0.983,-0.010808426,-0.306115737
0.9832,-0.04539539,-0.306115737
0.9834,-0.010808426,-0.306115737
0.9836,-0.04539539,-0.306115737
0.9838,-0.04539539,0.047094729
0.984,-0.010808426,-0.306115737
0.9842,0.023778538,-0.306115737
0.9844,-0.04539539,-0.306115737
0.9846,-0.010808426,-0.306115737
0.9848,-0.04539539,-0.306115737
0.985,-0.04539539,-0.306115737
0.9852,-0.010808426,-0.306115737
0.9854,-0.04539539,-0.306115737
0.9856,-0.04539539,-0.306115737
0.9858,-0.010808426,-0.306115737
0.986,-0.04539539,-0.306115737
0.9862,-0.04539539,-0.306115737
0.9864,-0.010808426,-0.306115737
0.9866,-0.010808426,-0.306115737
0.9868,-0.010808426,-0.306115737
0.987,-0.010808426,-0.306115737
0.9872,-0.010808426,-0.306115737
0.9874,-0.04539539,-0.306115737
0.9876,-0.010808426,-0.306115737
0.9878,-0.010808426,-0.306115737
0.988,-0.010808426,-0.306115737
0.9882,0.023778538,-0.306115737
0.9884,-0.010808426,-0.306115737
0.9886,-0.010808426,-0.306115737
0.9888,-0.010808426,-0.306115737
0.989,0.023778538,-0.306115737
0.9892,-0.010808426,-0.306115737
0.9894,-0.010808426,-0.306115737
0.9896,-0.010808426,-0.306115737
0.9898,-0.010808426,-0.306115737
0.99,-0.010808426,-0.306115737
0.9902,-0.010808426,-0.306115737
0.9904,-0.010808426,-0.306115737
0.9906,-0.010808426,-0.306115737
0.9908,0.023778538,-0.306115737
0.991,-0.010808426,-0.306115737
0.9912,-0.010808426,-0.306115737
0.9914,-0.010808426,-0.306115737
0.9916,-0.04539539,-0.306115737
0.9918,-0.010808426,-0.306115737
0.992,-0.010808426,-0.306115737
0.9922,-0.04539539,-0.306115737
0.9924,-0.010808426,-0.306115737
0.9926,-0.010808426,-0.306115737
0.9928,-0.010808426,-0.306115737
0.993,-0.010808426,-0.306115737
0.9932,-0.04539539,-0.306115737
0.9934,-0.04539539,-0.306115737
0.9936,-0.010808426,-0.306115737
0.9938,-0.010808426,-0.306115737
0.994,-0.04539539,-0.306115737
0.9942,-0.010808426,-0.306115737
0.9944,0.023778538,-0.306115737
0.9946,-0.010808426,-0.306115737
0.9948,-0.010808426,-0.306115737
0.995,0.023778538,-0.306115737
0.9952,-0.010808426,-0.306115737
0.9954,-0.010808426,-0.306115737
0.9956,-0.010808426,-0.306115737
0.9958,-0.010808426,-0.306115737
0.996,-0.010808426,-0.306115737
0.9962,-0.010808426,-0.306115737
0.9964,-0.04539539,-0.306115737
0.9966,-0.04539539,-0.306115737
0.9968,-0.010808426,-0.306115737
0.997,-0.010808426,-0.306115737
0.9972,-0.010808426,-0.306115737
0.9974,-0.010808426,-0.306115737
0.9976,-0.04539539,-0.306115737
0.9978,-0.010808426,-0.306115737
0.998,-0.010808426,-0.306115737
0.9982,-0.04539539,-0.306115737
0.9984,-0.010808426,-0.306115737
0.9986,-0.010808426,-0.306115737
0.9988,-0.010808426,-0.306115737
0.999,-0.010808426,-0.306115737
0.9992,-0.010808426,-0.306115737
0.9994,-0.010808426,-0.306115737
0.9996,-0.010808426,-0.306115737
0.9998,-0.010808426,-0.306115737
1,-0.04539539,-0.306115737
