Latest: Time (s),Latest: Z-Axis Acceleration (m/sÂ²),Latest: Potential (mV)
0,-32.85113091,10.17246142
0.0002,-30.75429621,10.17246142
0.0004,-30.03013165,10.17246142
0.0006,-29.82477155,10.92597708
0.0008,-28.14081873,11.30273491
0.001,-27.82953605,11.30273491
0.0012,-30.40842657,11.30273491
0.0014,-33.4693729,10.92597708
0.0016,-36.87402718,10.92597708
0.0018,-39.28214456,10.92597708
0.002,-40.38244236,10.54921925
0.0022,-40.45161629,10.92597708
0.0024,-40.48620325,10.17246142
0.0026,-40.62238942,10.17246142
0.0028,-38.00891194,9.79570359
0.003,-34.29513666,9.41894576
0.0032,-31.13259113,9.042187929
0.0034,-27.69334988,8.665430099
0.0036,-23.18839779,8.288672268
0.0038,-17.82309498,7.935461802
0.004,-10.94461248,7.558703972
0.0042,-2.142230094,6.805188311
0.0044,5.285320463,6.805188311
0.0046,11.85468197,6.051672651
0.0048,19.59135352,5.67491482
0.005,27.12266497,5.29815699
0.0052,32.55498003,4.921399159
0.0054,36.33792924,4.544641329
0.0056,38.88439447,4.167883499
0.0058,39.22810243,3.814673033
0.006,38.71145965,3.814673033
0.0062,39.12434154,3.061157372
0.0064,39.57181039,2.684399541
0.0066,39.84634442,2.684399541
0.0068,40.53376033,2.307641711
0.007,41.63405813,2.307641711
0.0072,43.69846755,2.307641711
0.0074,46.31194503,1.55412605
0.0076,46.82642612,1.55412605
0.0078,45.2462342,1.55412605
0.008,45.93365011,1.17736822
0.0082,48.85624858,1.17736822
0.0084,51.19519203,1.17736822
0.0086,51.60807392,0.80061039
0.0088,52.91373182,0.80061039
0.009,54.59984632,0.80061039
0.0092,55.90550422,0.80061039
0.0094,56.90204112,0.80061039
0.0096,56.35297307,0.80061039
0.0098,54.73603249,0.80061039
0.01,51.77884706,0.80061039
0.0102,47.58301596,0.80061039
0.0104,43.01105164,0.80061039
0.0106,38.3677517,0.80061039
0.0108,32.17668511,0.80061039
0.011,23.0997687,0.80061039
0.0112,16.25587316,0.80061039
0.0114,11.44180009,0.80061039
0.0116,8.071732764,0.80061039
0.0118,7.451329094,0.80061039
0.012,11.13267909,1.17736822
0.0122,19.90047451,1.17736822
0.0124,27.74090695,1.17736822
0.0126,34.10274668,1.17736822
0.0128,39.22810243,1.17736822
0.013,43.42177184,1.930883881
0.0132,46.82642612,1.930883881
0.0134,49.61283842,1.930883881
0.0136,51.77884706,1.930883881
0.0138,53.70490862,2.307641711
0.014,55.18350134,2.307641711
0.0142,54.94355428,2.684399541
0.0144,52.77538396,2.684399541
0.0146,49.06160868,3.061157372
0.0148,43.28558567,3.437915202
0.015,34.92851045,3.437915202
0.0152,24.26924042,3.437915202
0.0154,12.54209788,3.814673033
0.0156,1.297011157,4.167883499
0.0158,-10.08642343,4.167883499
0.016,-20.43657246,4.167883499
0.0162,-27.52041506,4.167883499
0.0164,-31.19960337,4.167883499
0.0166,-32.33448813,4.544641329
0.0168,-32.50742295,4.921399159
0.017,-30.99424327,4.167883499
0.0172,-27.76252381,4.921399159
0.0174,-23.9795746,4.921399159
0.0176,-19.57622172,4.544641329
0.0178,-15.14044357,4.921399159
0.018,-9.742715471,4.921399159
0.0182,-4.239064797,4.544641329
0.0184,0.196713359,4.544641329
0.0186,3.979662565,4.544641329
0.0188,7.384316851,4.544641329
0.019,9.377390662,4.167883499
0.0192,7.485916059,4.167883499
0.0194,2.879364768,4.167883499
0.0196,-1.28187936,4.167883499
0.0198,-5.203176423,3.814673033
0.02,-9.708128507,3.814673033
0.0202,-15.72626027,3.437915202
0.0204,-22.67175502,3.437915202
0.0206,-27.31505496,2.684399541
0.0208,-29.9631194,2.684399541
0.021,-32.47283599,2.307641711
0.0212,-34.77719248,2.307641711
0.0214,-35.60295625,2.307641711
0.0216,-35.70455546,1.930883881
0.0218,-35.77372938,1.17736822
0.022,-35.12090043,1.17736822
0.0222,-34.70801855,1.17736822
0.0224,-35.32626053,0.80061039
0.0226,-35.46460839,0.80061039
0.0228,-35.39543446,0.80061039
0.023,-35.32626053,0.047094729
0.0232,-35.25924829,0.047094729
0.0234,-34.91337865,0.047094729
0.0236,-34.94796561,0.047094729
0.0238,-34.32972363,0.047094729
0.024,-33.1602519,-0.306115737
0.0242,-31.57789829,-0.306115737
0.0244,-29.72101065,-0.306115737
0.0246,-27.93329694,-0.306115737
0.0248,-26.79841218,-0.306115737
0.025,-26.52387815,-0.306115737
0.0252,-26.76382522,-0.306115737
0.0254,-26.59305208,-0.306115737
0.0256,-26.0764093,0.047094729
0.0258,-25.93806145,-0.306115737
0.026,-25.38899339,-0.306115737
0.0262,-23.91040067,0.047094729
0.0264,-22.56799412,-0.306115737
0.0266,-21.50228329,-0.306115737
0.0268,-20.71110649,-0.306115737
0.027,-20.84945434,-0.306115737
0.0272,-20.88404131,-0.306115737
0.0274,-20.19662539,-0.306115737
0.0276,-19.47462252,-0.306115737
0.0278,-18.75261964,-0.306115737
0.028,-17.65232184,-0.306115737
0.0282,-16.96274424,-0.306115737
0.0284,-16.79197111,-0.306115737
0.0286,-16.58444932,-0.306115737
0.0288,-16.79197111,-0.306115737
0.029,-17.27402692,-0.306115737
0.0292,-17.47938702,-0.306115737
0.0294,-17.37562613,-0.306115737
0.0296,-16.96274424,-0.306115737
0.0298,-16.27532833,0.047094729
0.03,-16.0007943,-0.306115737
0.0302,-15.76084724,-0.306115737
0.0304,-15.31337839,-0.306115737
0.0306,-14.59137551,-0.306115737
0.0308,-13.31814289,-0.306115737
0.031,-11.66877704,-0.306115737
0.0312,-10.08642343,-0.306115737
0.0314,-8.434895888,-0.306115737
0.0316,-7.163824955,-0.306115737
0.0318,-6.439660392,-0.306115737
0.032,-5.581471344,-0.306115737
0.0322,-4.928642395,-0.306115737
0.0324,-4.686533646,-0.306115737
0.0326,-3.89535684,-0.306115737
0.0328,-2.658872871,-0.306115737
0.033,-1.867696065,-0.306115737
0.0332,-1.180280152,0.047094729
0.0334,-0.559876483,-0.306115737
0.0336,-0.559876483,-0.306115737
0.0338,-0.801985232,-0.306115737
0.034,-0.834410511,-0.306115737
0.0342,-0.629050411,-0.306115737
0.0344,-0.04539539,-0.306115737
0.0346,0.814955343,-0.306115737
0.0348,1.467784292,-0.306115737
0.035,1.915253141,-0.306115737
0.0352,2.258961098,-0.306115737
0.0354,2.706429947,-0.306115737
0.0356,3.223072724,-0.306115737
0.0358,3.945075601,-0.306115737
0.036,4.941612507,-0.306115737
0.0362,6.351031297,-0.306115737
0.0364,7.693437844,-0.306115737
0.0366,9.172030562,-0.306115737
0.0368,10.41067622,0.047094729
0.037,10.99433124,-0.306115737
0.0372,11.2342783,-0.306115737
0.0374,11.71633411,-0.306115737
0.0376,12.36916306,-0.306115737
0.0378,13.36786165,-0.306115737
0.038,14.56975866,-0.306115737
0.0382,15.19016233,-0.306115737
0.0384,15.36093546,-0.306115737
0.0386,15.56845725,-0.306115737
0.0388,15.39552243,0.047094729
0.039,14.98264054,-0.306115737
0.0392,14.50274642,0.047094729
0.0394,14.15903846,0.047094729
0.0396,14.2260507,-0.306115737
0.0398,14.84645437,-0.306115737
0.04,15.80840431,0.047094729
0.0402,16.4266463,-0.306115737
0.0404,16.63416808,-0.306115737
0.0406,16.73792898,0.047094729
0.0408,16.94328908,0.047094729
0.041,17.35617096,0.047094729
0.0412,17.59611802,0.047094729
0.0414,17.83822677,-0.306115737
0.0416,17.9074007,-0.306115737
0.0418,17.93982598,-0.306115737
0.042,18.21652169,-0.306115737
0.0422,18.52564269,-0.306115737
0.0424,18.28569562,-0.306115737
0.0426,17.87281374,0.047094729
0.0428,17.56153106,0.047094729
0.043,17.76905285,-0.306115737
0.0432,18.42188179,-0.306115737
0.0434,18.86935064,0.047094729
0.0436,18.45646876,-0.306115737
0.0438,17.69987892,-0.306115737
0.044,17.04704997,0.047094729
0.0442,16.25587316,-0.306115737
0.0444,15.60304421,-0.306115737
0.0446,14.94805358,0.047094729
0.0448,14.1244515,-0.306115737
0.045,13.57322175,-0.306115737
0.0452,13.46946086,-0.306115737
0.0454,13.4348739,-0.306115737
0.0456,12.95497977,-0.306115737
0.0458,11.95628118,-0.306115737
0.046,10.78897114,-0.306115737
0.0462,10.06480658,-0.306115737
0.0464,9.859446475,-0.306115737
0.0466,9.755685583,-0.306115737
0.0468,9.44656459,-0.306115737
0.047,8.724561713,-0.306115737
0.0472,8.175493657,-0.306115737
0.0474,7.933384908,-0.306115737
0.0476,7.485916059,-0.306115737
0.0478,6.83308711,-0.306115737
0.048,6.145671197,-0.306115737
0.0482,5.458255284,0.047094729
0.0484,4.941612507,-0.306115737
0.0486,5.010786435,-0.306115737
0.0488,4.736252407,-0.306115737
0.049,3.945075601,-0.306115737
0.0492,2.980963975,-0.306115737
0.0494,1.98442707,-0.306115737
0.0496,1.435359013,0.047094729
0.0498,1.331598121,-0.306115737
0.05,0.711194451,-0.306115737
0.0502,-0.112407634,-0.306115737
0.0504,-0.868997475,-0.306115737
0.0506,-1.625587316,-0.306115737
0.0508,-2.520525014,-0.306115737
0.051,-3.482474955,-0.306115737
0.0512,-4.859468467,-0.306115737
0.0514,-6.095952436,-0.306115737
0.0516,-6.785530034,-0.306115737
0.0518,-6.95630317,-0.306115737
0.052,-6.817955313,-0.306115737
0.0522,-7.060064062,-0.306115737
0.0524,-8.056600968,-0.306115737
0.0526,-8.916951701,-0.306115737
0.0528,-9.638954579,-0.306115737
0.053,-10.46471835,0.047094729
0.0532,-10.9121872,-0.306115737
0.0534,-11.46125525,-0.306115737
0.0536,-12.04707196,0.047094729
0.0538,-12.012485,-0.306115737
0.054,-12.012485,-0.306115737
0.0542,-12.21784509,-0.306115737
0.0544,-12.49237912,-0.306115737
0.0546,-13.04360886,-0.306115737
0.0548,-13.59267692,-0.306115737
0.055,-13.59267692,-0.306115737
0.0552,-13.42190379,-0.306115737
0.0554,-13.38731682,-0.306115737
0.0556,-13.42190379,-0.306115737
0.0558,-13.80019871,-0.306115737
0.056,-14.3146798,-0.306115737
0.0562,-14.45302765,-0.306115737
0.0564,-14.76214865,-0.306115737
0.0566,-14.93508347,-0.306115737
0.0568,-14.9004965,-0.306115737
0.057,-14.86590954,-0.306115737
0.0572,-14.62596248,0.047094729
0.0574,-14.38385373,-0.306115737
0.0576,-14.59137551,-0.306115737
0.0578,-14.86590954,0.047094729
0.058,-15.24420446,-0.306115737
0.0582,-15.69167331,-0.306115737
0.0584,-15.58791242,-0.306115737
0.0586,-15.07126964,-0.306115737
0.0588,-14.66054944,-0.306115737
0.059,-14.21308059,-0.306115737
0.0592,-13.73102478,-0.306115737
0.0594,-13.55808996,-0.306115737
0.0596,-13.42190379,-0.306115737
0.0598,-13.28355593,-0.306115737
0.06,-13.14736976,-0.306115737
0.0602,-12.80150012,-0.306115737
0.0604,-12.35619295,-0.306115737
0.0606,-11.73578928,-0.306115737
0.0608,-10.9121872,-0.306115737
0.061,-10.29178353,-0.306115737
0.0612,-10.0172495,-0.306115737
0.0614,-9.913488607,-0.306115737
0.0616,-9.742715471,-0.306115737
0.0618,-9.431432794,-0.306115737
0.062,-8.813190809,-0.306115737
0.0622,-8.16036186,-0.306115737
0.0624,-7.609132119,-0.306115737
0.0626,-7.163824955,-0.306115737
0.0628,-6.817955313,-0.306115737
0.063,-6.474247357,-0.306115737
0.0632,-6.095952436,-0.306115737
0.0634,-5.786831444,-0.306115737
0.0636,-5.54688438,-0.306115737
0.0638,-5.030241602,-0.306115737
0.064,-4.308238725,-0.306115737
0.0642,-3.415462712,-0.306115737
0.0644,-2.725885114,-0.306115737
0.0646,-2.382177158,-0.306115737
0.0648,-2.313003229,0.047094729
0.065,-1.867696065,-0.306115737
0.0652,-1.145693188,-0.306115737
0.0654,-0.285342454,0.047094729
0.0656,0.644182208,-0.306115737
0.0658,1.467784292,-0.306115737
0.066,2.15736189,0.047094729
0.0662,2.879364768,-0.306115737
0.0664,3.532193716,-0.306115737
0.0666,3.979662565,-0.306115737
0.0668,4.254196594,-0.306115737
0.067,4.563317586,-0.306115737
0.0672,5.114547327,-0.306115737
0.0674,6.145671197,-0.306115737
0.0676,7.006021931,-0.306115737
0.0678,7.451329094,-0.306115737
0.068,7.693437844,-0.306115737
0.0682,7.797198736,-0.306115737
0.0684,8.002558836,-0.306115737
0.0686,8.415440721,-0.306115737
0.0688,8.793735642,-0.306115737
0.069,9.102856634,0.047094729
0.0692,9.411977626,-0.306115737
0.0694,9.790272547,-0.306115737
0.0696,10.20315443,-0.306115737
0.0698,10.61603632,-0.306115737
0.07,10.51227542,-0.306115737
0.0702,10.2377414,-0.306115737
0.0704,10.41067622,-0.306115737
0.0706,10.82139642,-0.306115737
0.0708,11.47638705,-0.306115737
0.071,12.06004207,-0.306115737
0.0712,12.29998913,-0.306115737
0.0714,12.3345761,0.047094729
0.0716,12.43833699,0.047094729
0.0718,12.64585878,-0.306115737
0.072,12.81663191,-0.306115737
0.0722,12.88580584,-0.306115737
0.0724,12.88580584,-0.306115737
0.0726,13.1257529,-0.306115737
0.0728,13.53863479,-0.306115737
0.073,14.05527757,-0.306115737
0.0732,14.2260507,-0.306115737
0.0734,13.98610364,-0.306115737
0.0736,13.4348739,-0.306115737
0.0738,13.26410076,0.047094729
0.074,13.33327469,-0.306115737
0.0742,13.26410076,-0.306115737
0.0744,13.0241537,0.047094729
0.0746,12.57668485,-0.306115737
0.0748,12.02545511,-0.306115737
0.075,11.64716019,0.047094729
0.0752,11.2342783,-0.306115737
0.0754,10.61603632,-0.306115737
0.0756,9.997794332,-0.306115737
0.0758,9.377390662,-0.306115737
0.076,9.033682705,-0.306115737
0.0762,9.137443598,-0.306115737
0.0764,8.999095741,-0.306115737
0.0766,8.346266793,-0.306115737
0.0768,7.65885088,-0.306115737
0.077,7.073034174,-0.306115737
0.0772,6.694739253,-0.306115737
0.0774,6.558553082,-0.306115737
0.0776,6.249432089,-0.306115737
0.0778,5.938149412,-0.306115737
0.078,5.698202348,-0.306115737
0.0782,5.389081356,-0.306115737
0.0784,5.045373399,-0.306115737
0.0786,4.770839371,-0.306115737
0.0788,4.115848737,-0.306115737
0.079,3.463019788,-0.306115737
0.0792,3.223072724,-0.306115737
0.0794,3.084724867,-0.306115737
0.0796,3.084724867,0.047094729
0.0798,2.946377011,-0.306115737
0.08,2.36272199,-0.306115737
0.0802,1.744480006,-0.306115737
0.0804,1.297011157,-0.306115737
0.0806,0.644182208,-0.306115737
0.0808,0.231300323,-0.306115737
0.081,-0.319929419,-0.306115737
0.0812,-0.972758367,-0.306115737
0.0814,-1.420227216,-0.306115737
0.0816,-1.729348209,-0.306115737
0.0818,-2.313003229,-0.306115737
0.082,-2.967993863,-0.306115737
0.0822,-3.860769876,-0.306115737
0.0824,-4.651946682,-0.306115737
0.0826,-5.064828566,-0.306115737
0.0828,-5.203176423,-0.306115737
0.083,-5.408536523,-0.306115737
0.0832,-5.683070551,-0.306115737
0.0834,-6.165126364,-0.306115737
0.0836,-6.612595213,-0.306115737
0.0838,-6.990890134,0.047094729
0.084,-7.403772019,-0.306115737
0.0842,-7.816653904,-0.306115737
0.0844,-8.16036186,-0.306115737
0.0846,-8.36572196,0.047094729
0.0848,-8.469482852,-0.306115737
0.085,-8.434895888,-0.306115737
0.0852,-8.573243745,-0.306115737
0.0854,-8.98612563,-0.306115737
0.0856,-9.431432794,0.047094729
0.0858,-9.809727714,-0.306115737
0.086,-10.0172495,-0.306115737
0.0862,-9.982662535,0.047094729
0.0864,-10.0172495,-0.306115737
0.0866,-10.0172495,-0.306115737
0.0868,-10.15559736,-0.306115737
0.087,-10.36095746,-0.306115737
0.0872,-10.49930531,-0.306115737
0.0874,-10.63549148,-0.306115737
0.0876,-10.84301327,-0.306115737
0.0878,-11.1175473,-0.306115737
0.088,-11.22130819,0.047094729
0.0882,-11.22130819,-0.306115737
0.0884,-11.1175473,-0.306115737
0.0886,-11.08296033,0.047094729
0.0888,-11.18672123,-0.306115737
0.089,-11.3229074,-0.306115737
0.0892,-11.42666829,-0.306115737
0.0894,-11.25589515,0.047094729
0.0896,-10.9121872,-0.306115737
0.0898,-10.56631756,-0.306115737
0.09,-10.36095746,-0.306115737
0.0902,-10.12101039,-0.306115737
0.0904,-9.948075571,-0.306115737
0.0906,-9.708128507,-0.306115737
0.0908,-9.535193686,-0.306115737
0.091,-9.295246622,-0.306115737
0.0912,-9.122311801,-0.306115737
0.0914,-8.813190809,-0.306115737
0.0916,-8.264122753,-0.306115737
0.0918,-7.609132119,-0.306115737
0.092,-7.163824955,-0.306115737
0.0922,-6.95630317,-0.306115737
0.0924,-6.817955313,-0.306115737
0.0926,-6.647182177,-0.306115737
0.0928,-6.268887257,0.047094729
0.093,-5.821418408,-0.306115737
0.0932,-5.306937316,-0.306115737
0.0934,-4.995654638,-0.306115737
0.0936,-4.651946682,-0.306115737
0.0938,-4.172052554,-0.306115737
0.094,-3.551648884,-0.306115737
0.0942,-3.277114856,-0.306115737
0.0944,-3.104180035,-0.306115737
0.0946,-2.933406899,-0.306115737
0.0948,-2.555111978,0.047094729
0.095,-1.969295273,-0.306115737
0.0952,-1.420227216,-0.306115737
0.0954,-1.07651926,-0.306115737
0.0956,-0.834410511,-0.306115737
0.0958,-0.629050411,-0.306115737
0.096,-0.319929419,-0.306115737
0.0962,0.231300323,-0.306115737
0.0964,0.711194451,-0.306115737
0.0966,1.089489372,-0.306115737
0.0968,1.502371256,0.047094729
0.097,2.019014034,-0.306115737
0.0972,2.671842983,-0.306115737
0.0974,3.223072724,-0.306115737
0.0976,3.497606752,-0.306115737
0.0978,3.670541573,-0.306115737
0.098,3.979662565,-0.306115737
0.0982,4.459556693,-0.306115737
0.0984,5.079960363,-0.306115737
0.0986,5.698202348,-0.306115737
0.0988,6.00732334,0.047094729
0.099,6.214845125,-0.306115737
0.0992,6.489379153,-0.306115737
0.0994,6.83308711,-0.306115737
0.0996,7.176795066,0.047094729
0.0998,7.384316851,-0.306115737
0.1,7.520503023,-0.306115737
0.1002,7.797198736,0.047094729
0.1004,8.2425059,-0.306115737
0.1006,8.655387785,-0.306115737
0.1008,8.86290957,-0.306115737
0.101,8.828322606,-0.306115737
0.1012,8.724561713,-0.306115737
0.1014,8.86290957,-0.306115737
0.1016,9.033682705,-0.306115737
0.1018,9.241204491,-0.306115737
0.102,9.377390662,-0.306115737
0.1022,9.342803698,-0.306115737
0.1024,9.308216734,0.047094729
0.1026,9.411977626,-0.306115737
0.1028,9.515738519,-0.306115737
0.103,9.44656459,0.047094729
0.1032,9.308216734,-0.306115737
0.1034,9.206617526,-0.306115737
0.1036,9.308216734,-0.306115737
0.1038,9.515738519,-0.306115737
0.104,9.515738519,-0.306115737
0.1042,9.342803698,-0.306115737
0.1044,9.06826967,-0.306115737
0.1046,8.759148677,-0.306115737
0.1048,8.586213856,-0.306115737
0.105,8.586213856,-0.306115737
0.1052,8.484614649,-0.306115737
0.1054,8.2425059,-0.306115737
0.1056,8.071732764,-0.306115737
0.1058,7.898797943,0.047094729
0.106,7.797198736,-0.306115737
0.1062,7.589676951,-0.306115737
0.1064,7.107621138,0.047094729
0.1066,6.694739253,-0.306115737
0.1068,6.385618261,-0.306115737
0.107,6.214845125,0.047094729
0.1072,6.145671197,-0.306115737
0.1074,5.972736376,-0.306115737
0.1076,5.559854491,0.047094729
0.1078,5.079960363,0.047094729
0.108,4.837851614,-0.306115737
0.1082,4.494143658,-0.306115737
0.1084,4.219609629,-0.306115737
0.1086,3.945075601,-0.306115737
0.1088,3.497606752,-0.306115737
0.109,3.153898796,-0.306115737
0.1092,2.879364768,-0.306115737
0.1094,2.535656811,-0.306115737
0.1096,2.189787169,-0.306115737
0.1098,1.640719113,-0.306115737
0.11,1.124076336,-0.306115737
0.1102,0.884129272,-0.306115737
0.1104,0.575008279,-0.306115737
0.1106,0.33289953,-0.306115737
0.1108,0.058365502,-0.306115737
0.111,-0.319929419,-0.306115737
0.1112,-0.767398268,0.047094729
0.1114,-1.145693188,-0.306115737
0.1116,-1.489401145,-0.306115737
0.1118,-1.867696065,0.047094729
0.112,-2.211404022,-0.306115737
0.1122,-2.624285907,-0.306115737
0.1124,-2.933406899,0.047094729
0.1126,-3.069593071,-0.306115737
0.1128,-3.380875748,-0.306115737
0.113,-3.929943804,-0.306115737
0.1132,-4.342825689,-0.306115737
0.1134,-4.790294538,-0.306115737
0.1136,-5.099415531,-0.306115737
0.1138,-5.237763387,-0.306115737
0.114,-5.373949559,-0.306115737
0.1142,-5.581471344,-0.306115737
0.1144,-5.856005372,-0.306115737
0.1146,-6.095952436,-0.306115737
0.1148,-6.303474221,-0.306115737
0.115,-6.439660392,-0.306115737
0.1152,-6.647182177,-0.306115737
0.1154,-6.785530034,0.047094729
0.1156,-6.852542277,-0.306115737
0.1158,-6.887129241,-0.306115737
0.116,-6.852542277,0.047094729
0.1162,-6.817955313,-0.306115737
0.1164,-6.95630317,-0.306115737
0.1166,-7.163824955,0.047094729
0.1168,-7.230837198,0.047094729
0.117,-7.230837198,-0.306115737
0.1172,-7.163824955,-0.306115737
0.1174,-7.025477098,-0.306115737
0.1176,-6.990890134,-0.306115737
0.1178,-7.060064062,-0.306115737
0.118,-7.025477098,-0.306115737
0.1182,-6.95630317,-0.306115737
0.1184,-6.921716206,-0.306115737
0.1186,-6.887129241,0.047094729
0.1188,-6.95630317,-0.306115737
0.119,-6.921716206,-0.306115737
0.1192,-6.716356106,-0.306115737
0.1194,-6.543421285,-0.306115737
0.1196,-6.407235113,-0.306115737
0.1198,-6.372648149,-0.306115737
0.12,-6.439660392,-0.306115737
0.1202,-6.338061185,-0.306115737
0.1204,-6.028940193,-0.306115737
0.1206,-5.717657515,-0.306115737
0.1208,-5.54688438,0.047094729
0.121,-5.339362595,-0.306115737
0.1212,-5.168589459,-0.306115737
0.1214,-4.859468467,-0.306115737
0.1216,-4.582772753,-0.306115737
0.1218,-4.481173546,-0.306115737
0.122,-4.342825689,-0.306115737
0.1222,-4.239064797,-0.306115737
0.1224,-4.068291661,-0.306115737
0.1226,-3.51706192,-0.306115737
0.1228,-3.104180035,0.047094729
0.123,-2.933406899,-0.306115737
0.1232,-2.760472078,-0.306115737
0.1234,-2.589698943,-0.306115737
0.1236,-2.313003229,-0.306115737
0.1238,-1.969295273,-0.306115737
0.124,-1.694761245,-0.306115737
0.1242,-1.591000352,-0.306115737
0.1244,-1.454814181,-0.306115737
0.1246,-1.247292396,-0.306115737
0.1248,-0.938171403,-0.306115737
0.125,-0.663637375,0.047094729
0.1252,-0.594463447,-0.306115737
0.1254,-0.559876483,-0.306115737
0.1256,-0.354516383,-0.306115737
0.1258,-0.077820669,-0.306115737
0.126,0.300474251,-0.306115737
0.1262,0.644182208,0.047094729
0.1264,0.780368379,-0.306115737
0.1266,0.849542308,-0.306115737
0.1268,1.057064093,0.047094729
0.127,1.366185085,-0.306115737
0.1272,1.571545185,-0.306115737
0.1274,1.744480006,-0.306115737
0.1276,1.846079213,-0.306115737
0.1278,2.019014034,-0.306115737
0.128,2.36272199,-0.306115737
0.1282,2.602669054,-0.306115737
0.1284,2.775603875,-0.306115737
0.1286,2.844777803,-0.306115737
0.1288,2.844777803,-0.306115737
0.129,2.980963975,-0.306115737
0.1292,3.257659688,-0.306115737
0.1294,3.497606752,-0.306115737
0.1296,3.635954609,-0.306115737
0.1298,3.670541573,0.047094729
0.13,3.737553816,-0.306115737
0.1302,3.945075601,-0.306115737
0.1304,4.081261773,-0.306115737
0.1306,4.081261773,-0.306115737
0.1308,4.048836494,-0.306115737
0.131,4.01424953,-0.306115737
0.1312,4.081261773,-0.306115737
0.1314,4.254196594,-0.306115737
0.1316,4.39254445,0.047094729
0.1318,4.357957486,-0.306115737
0.132,4.288783558,-0.306115737
0.1322,4.254196594,-0.306115737
0.1324,4.323370522,-0.306115737
0.1326,4.459556693,-0.306115737
0.1328,4.528730622,-0.306115737
0.133,4.494143658,-0.306115737
0.1332,4.494143658,-0.306115737
0.1334,4.563317586,-0.306115737
0.1336,4.667078478,-0.306115737
0.1338,4.736252407,-0.306115737
0.134,4.667078478,-0.306115737
0.1342,4.528730622,-0.306115737
0.1344,4.459556693,0.047094729
0.1346,4.528730622,-0.306115737
0.1348,4.59790455,-0.306115737
0.135,4.563317586,-0.306115737
0.1352,4.459556693,-0.306115737
0.1354,4.288783558,-0.306115737
0.1356,4.185022665,-0.306115737
0.1358,4.150435701,0.047094729
0.136,4.150435701,-0.306115737
0.1362,4.048836494,-0.306115737
0.1364,3.841314709,0.047094729
0.1366,3.737553816,-0.306115737
0.1368,3.702966852,-0.306115737
0.137,3.635954609,-0.306115737
0.1372,3.497606752,-0.306115737
0.1374,3.292246652,-0.306115737
0.1376,3.119311832,-0.306115737
0.1378,3.015550939,-0.306115737
0.138,2.980963975,-0.306115737
0.1382,2.913951732,-0.306115737
0.1384,2.775603875,-0.306115737
0.1386,2.535656811,-0.306115737
0.1388,2.36272199,0.047094729
0.139,2.293548062,-0.306115737
0.1392,2.189787169,-0.306115737
0.1394,2.15736189,-0.306115737
0.1396,2.019014034,-0.306115737
0.1398,1.846079213,-0.306115737
0.14,1.744480006,-0.306115737
0.1402,1.675306077,-0.306115737
0.1404,1.606132149,-0.306115737
0.1406,1.435359013,-0.306115737
0.1408,1.1586633,-0.306115737
0.141,0.918716236,0.047094729
0.1412,0.780368379,0.047094729
0.1414,0.644182208,-0.306115737
0.1416,0.471247387,-0.306115737
0.1418,0.265887287,-0.306115737
0.142,-0.04539539,-0.306115737
0.1422,-0.25075549,-0.306115737
0.1424,-0.45611559,-0.306115737
0.1426,-0.629050411,-0.306115737
0.1428,-0.903584439,0.047094729
0.143,-1.145693188,-0.306115737
0.1432,-1.351053288,-0.306115737
0.1434,-1.454814181,0.047094729
0.1436,-1.489401145,-0.306115737
0.1438,-1.591000352,-0.306115737
0.144,-1.763935173,-0.306115737
0.1442,-1.969295273,-0.306115737
0.1444,-2.107643129,-0.306115737
0.1446,-2.211404022,0.047094729
0.1448,-2.245990986,-0.306115737
0.145,-2.28057795,-0.306115737
0.1452,-2.48593805,-0.306115737
0.1454,-2.589698943,-0.306115737
0.1456,-2.658872871,-0.306115737
0.1458,-2.658872871,-0.306115737
0.146,-2.69129815,-0.306115737
0.1462,-2.829646007,-0.306115737
0.1464,-2.967993863,-0.306115737
0.1466,-3.069593071,-0.306115737
0.1468,-3.069593071,-0.306115737
0.147,-3.069593071,-0.306115737
0.1472,-3.138766999,-0.306115737
0.1474,-3.346288784,-0.306115737
0.1476,-3.551648884,0.047094729
0.1478,-3.620822812,-0.306115737
0.148,-3.620822812,-0.306115737
0.1482,-3.620822812,-0.306115737
0.1484,-3.826182912,-0.306115737
0.1486,-3.929943804,-0.306115737
0.1488,-4.033704697,0.047094729
0.149,-4.033704697,-0.306115737
0.1492,-4.033704697,-0.306115737
0.1494,-4.068291661,-0.306115737
0.1496,-4.172052554,-0.306115737
0.1498,-4.239064797,-0.306115737
0.15,-4.204477833,-0.306115737
0.1502,-4.102878625,-0.306115737
0.1504,-3.929943804,-0.306115737
0.1506,-3.929943804,-0.306115737
0.1508,-3.89535684,0.047094729
0.151,-3.89535684,-0.306115737
0.1512,-3.759170669,-0.306115737
0.1514,-3.482474955,-0.306115737
0.1516,-3.380875748,0.047094729
0.1518,-3.346288784,-0.306115737
0.152,-3.31170182,-0.306115737
0.1522,-3.207940927,-0.306115737
0.1524,-3.069593071,0.047094729
0.1526,-2.933406899,-0.306115737
0.1528,-2.864232971,0.047094729
0.153,-2.898819935,-0.306115737
0.1532,-2.829646007,-0.306115737
0.1534,-2.69129815,-0.306115737
0.1536,-2.48593805,0.047094729
0.1538,-2.313003229,-0.306115737
0.154,-2.313003229,-0.306115737
0.1542,-2.28057795,-0.306115737
0.1544,-2.142230094,-0.306115737
0.1546,-1.969295273,-0.306115737
0.1548,-1.798522137,-0.306115737
0.155,-1.729348209,-0.306115737
0.1552,-1.66017428,-0.306115737
0.1554,-1.523988109,0.047094729
0.1556,-1.316466324,-0.306115737
0.1558,-1.111106224,0.047094729
0.156,-0.903584439,-0.306115737
0.1562,-0.834410511,-0.306115737
0.1564,-0.767398268,-0.306115737
0.1566,-0.559876483,-0.306115737
0.1568,-0.216168526,-0.306115737
0.157,-0.010808426,0.047094729
0.1572,0.196713359,-0.306115737
0.1574,0.300474251,-0.306115737
0.1576,0.471247387,-0.306115737
0.1578,0.644182208,-0.306115737
0.158,0.9533032,-0.306115737
0.1582,1.089489372,-0.306115737
0.1584,1.227837228,0.047094729
0.1586,1.331598121,-0.306115737
0.1588,1.467784292,-0.306115737
0.159,1.744480006,0.047094729
0.1592,1.949840105,-0.306115737
0.1594,1.98442707,-0.306115737
0.1596,2.053600998,-0.306115737
0.1598,2.122774926,-0.306115737
0.16,2.224374134,0.047094729
0.1602,2.431895919,-0.306115737
0.1604,2.501069847,-0.306115737
0.1606,2.466482883,-0.306115737
0.1608,2.535656811,-0.306115737
0.161,2.671842983,-0.306115737
0.1612,2.775603875,-0.306115737
0.1614,2.980963975,-0.306115737
0.1616,2.980963975,-0.306115737
0.1618,2.980963975,-0.306115737
0.162,3.084724867,0.047094729
0.1622,3.223072724,-0.306115737
0.1624,3.292246652,-0.306115737
0.1626,3.39384586,0.047094729
0.1628,3.359258896,-0.306115737
0.163,3.292246652,-0.306115737
0.1632,3.359258896,-0.306115737
0.1634,3.463019788,-0.306115737
0.1636,3.497606752,-0.306115737
0.1638,3.497606752,-0.306115737
0.164,3.428432824,-0.306115737
0.1642,3.39384586,-0.306115737
0.1644,3.497606752,-0.306115737
0.1646,3.497606752,-0.306115737
0.1648,3.497606752,0.047094729
0.165,3.428432824,-0.306115737
0.1652,3.292246652,-0.306115737
0.1654,3.257659688,0.047094729
0.1656,3.292246652,-0.306115737
0.1658,3.223072724,-0.306115737
0.166,3.119311832,0.047094729
0.1662,2.946377011,-0.306115737
0.1664,2.810190839,-0.306115737
0.1666,2.706429947,0.047094729
0.1668,2.671842983,-0.306115737
0.167,2.56808209,-0.306115737
0.1672,2.431895919,0.047094729
0.1674,2.328135026,0.047094729
0.1676,2.258961098,-0.306115737
0.1678,2.189787169,0.047094729
0.168,2.15736189,-0.306115737
0.1682,2.019014034,-0.306115737
0.1684,1.846079213,-0.306115737
0.1686,1.709893041,-0.306115737
0.1688,1.606132149,-0.306115737
0.169,1.606132149,0.047094729
0.1692,1.536958221,-0.306115737
0.1694,1.400772049,-0.306115737
0.1696,1.262424192,-0.306115737
0.1698,1.089489372,-0.306115737
0.17,1.022477128,-0.306115737
0.1702,0.918716236,-0.306115737
0.1704,0.711194451,-0.306115737
0.1706,0.505834351,-0.306115737
0.1708,0.33289953,-0.306115737
0.171,0.231300323,-0.306115737
0.1712,0.162126395,-0.306115737
0.1714,-0.010808426,0.047094729
0.1716,-0.112407634,-0.306115737
0.1718,-0.389103347,-0.306115737
0.172,-0.559876483,-0.306115737
0.1722,-0.594463447,-0.306115737
0.1724,-0.663637375,0.047094729
0.1726,-0.801985232,0.047094729
0.1728,-0.938171403,-0.306115737
0.173,-1.145693188,-0.306115737
0.1732,-1.212705431,-0.306115737
0.1734,-1.247292396,-0.306115737
0.1736,-1.316466324,-0.306115737
0.1738,-1.420227216,-0.306115737
0.174,-1.558575073,-0.306115737
0.1742,-1.66017428,-0.306115737
0.1744,-1.625587316,0.047094729
0.1746,-1.591000352,-0.306115737
0.1748,-1.694761245,-0.306115737
0.175,-1.798522137,0.047094729
0.1752,-1.90228303,-0.306115737
0.1754,-1.969295273,0.047094729
0.1756,-1.934708309,-0.306115737
0.1758,-1.934708309,-0.306115737
0.176,-2.003882237,-0.306115737
0.1762,-2.073056165,0.047094729
0.1764,-2.176817058,-0.306115737
0.1766,-2.142230094,-0.306115737
0.1768,-2.142230094,0.047094729
0.177,-2.245990986,-0.306115737
0.1772,-2.347590193,-0.306115737
0.1774,-2.416764122,-0.306115737
0.1776,-2.451351086,0.047094729
0.1778,-2.416764122,-0.306115737
0.178,-2.416764122,0.047094729
0.1782,-2.520525014,-0.306115737
0.1784,-2.589698943,-0.306115737
0.1786,-2.658872871,-0.306115737
0.1788,-2.624285907,0.047094729
0.179,-2.555111978,-0.306115737
0.1792,-2.555111978,-0.306115737
0.1794,-2.589698943,-0.306115737
0.1796,-2.624285907,0.047094729
0.1798,-2.555111978,0.047094729
0.18,-2.451351086,-0.306115737
0.1802,-2.382177158,0.047094729
0.1804,-2.347590193,-0.306115737
0.1806,-2.382177158,-0.306115737
0.1808,-2.313003229,-0.306115737
0.181,-2.142230094,0.047094729
0.1812,-2.038469201,-0.306115737
0.1814,-1.969295273,0.047094729
0.1816,-1.969295273,-0.306115737
0.1818,-1.969295273,-0.306115737
0.182,-1.90228303,-0.306115737
0.1822,-1.763935173,-0.306115737
0.1824,-1.66017428,-0.306115737
0.1826,-1.625587316,0.047094729
0.1828,-1.625587316,-0.306115737
0.183,-1.591000352,0.047094729
0.1832,-1.489401145,0.047094729
0.1834,-1.385640252,-0.306115737
0.1836,-1.316466324,-0.306115737
0.1838,-1.351053288,0.047094729
0.184,-1.316466324,0.047094729
0.1842,-1.180280152,-0.306115737
0.1844,-1.07651926,0.047094729
0.1846,-0.938171403,0.047094729
0.1848,-0.903584439,-0.306115737
0.185,-0.903584439,-0.306115737
0.1852,-0.801985232,0.047094729
0.1854,-0.629050411,-0.306115737
0.1856,-0.490702554,0.047094729
0.1858,-0.389103347,0.047094729
0.186,-0.319929419,-0.306115737
0.1862,-0.285342454,-0.306115737
0.1864,-0.146994598,0.047094729
0.1866,0.058365502,-0.306115737
0.1868,0.231300323,-0.306115737
0.187,0.300474251,-0.306115737
0.1872,0.33289953,-0.306115737
0.1874,0.402073459,-0.306115737
0.1876,0.609595244,-0.306115737
0.1878,0.814955343,-0.306115737
0.188,0.918716236,-0.306115737
0.1882,0.9533032,-0.306115737
0.1884,1.022477128,-0.306115737
0.1886,1.057064093,0.047094729
0.1888,1.227837228,-0.306115737
0.189,1.297011157,-0.306115737
0.1892,1.297011157,-0.306115737
0.1894,1.297011157,-0.306115737
0.1896,1.331598121,-0.306115737
0.1898,1.366185085,-0.306115737
0.19,1.536958221,0.047094729
0.1902,1.571545185,-0.306115737
0.1904,1.536958221,-0.306115737
0.1906,1.571545185,0.047094729
0.1908,1.640719113,-0.306115737
0.191,1.744480006,-0.306115737
0.1912,1.846079213,-0.306115737
0.1914,1.880666177,-0.306115737
0.1916,1.880666177,-0.306115737
0.1918,1.915253141,0.047094729
0.192,1.98442707,-0.306115737
0.1922,2.122774926,-0.306115737
0.1924,2.122774926,-0.306115737
0.1926,2.122774926,-0.306115737
0.1928,2.15736189,0.047094729
0.193,2.189787169,-0.306115737
0.1932,2.328135026,-0.306115737
0.1934,2.397308954,-0.306115737
0.1936,2.397308954,-0.306115737
0.1938,2.36272199,-0.306115737
0.194,2.36272199,0.047094729
0.1942,2.431895919,-0.306115737
0.1944,2.466482883,-0.306115737
0.1946,2.431895919,-0.306115737
0.1948,2.397308954,-0.306115737
0.195,2.293548062,-0.306115737
0.1952,2.293548062,-0.306115737
0.1954,2.328135026,-0.306115737
0.1956,2.293548062,-0.306115737
0.1958,2.258961098,-0.306115737
0.196,2.15736189,-0.306115737
0.1962,2.122774926,0.047094729
0.1964,2.122774926,0.047094729
0.1966,2.088187962,-0.306115737
0.1968,2.053600998,0.047094729
0.197,1.98442707,-0.306115737
0.1972,1.846079213,-0.306115737
0.1974,1.811492249,-0.306115737
0.1976,1.811492249,-0.306115737
0.1978,1.77906697,-0.306115737
0.198,1.744480006,-0.306115737
0.1982,1.640719113,-0.306115737
0.1984,1.571545185,-0.306115737
0.1986,1.536958221,-0.306115737
0.1988,1.467784292,-0.306115737
0.199,1.400772049,-0.306115737
0.1992,1.262424192,-0.306115737
0.1994,1.1586633,0.047094729
0.1996,1.057064093,0.047094729
0.1998,0.987890164,-0.306115737
0.2,0.987890164,-0.306115737
0.2002,0.849542308,-0.306115737
0.2004,0.644182208,-0.306115737
0.2006,0.471247387,-0.306115737
0.2008,0.367486494,-0.306115737
0.201,0.300474251,-0.306115737
0.2012,0.231300323,-0.306115737
0.2014,0.058365502,-0.306115737
0.2016,-0.146994598,-0.306115737
0.2018,-0.25075549,-0.306115737
0.202,-0.285342454,-0.306115737
0.2022,-0.354516383,-0.306115737
0.2024,-0.490702554,-0.306115737
0.2026,-0.629050411,-0.306115737
0.2028,-0.801985232,-0.306115737
0.203,-0.834410511,-0.306115737
0.2032,-0.868997475,-0.306115737
0.2034,-0.972758367,-0.306115737
0.2036,-1.07651926,0.047094729
0.2038,-1.212705431,-0.306115737
0.204,-1.316466324,-0.306115737
0.2042,-1.351053288,0.047094729
0.2044,-1.385640252,-0.306115737
0.2046,-1.454814181,-0.306115737
0.2048,-1.591000352,-0.306115737
0.205,-1.66017428,-0.306115737
0.2052,-1.694761245,-0.306115737
0.2054,-1.694761245,-0.306115737
0.2056,-1.729348209,-0.306115737
0.2058,-1.833109101,0.047094729
0.206,-1.934708309,-0.306115737
0.2062,-2.038469201,-0.306115737
0.2064,-2.073056165,0.047094729
0.2066,-2.107643129,-0.306115737
0.2068,-2.176817058,-0.306115737
0.207,-2.28057795,0.047094729
0.2072,-2.382177158,-0.306115737
0.2074,-2.382177158,-0.306115737
0.2076,-2.313003229,-0.306115737
0.2078,-2.313003229,-0.306115737
0.208,-2.382177158,-0.306115737
0.2082,-2.416764122,-0.306115737
0.2084,-2.416764122,0.047094729
0.2086,-2.416764122,-0.306115737
0.2088,-2.382177158,-0.306115737
0.209,-2.347590193,-0.306115737
0.2092,-2.416764122,-0.306115737
0.2094,-2.451351086,-0.306115737
0.2096,-2.416764122,-0.306115737
0.2098,-2.313003229,-0.306115737
0.21,-2.245990986,-0.306115737
0.2102,-2.211404022,-0.306115737
0.2104,-2.211404022,-0.306115737
0.2106,-2.107643129,-0.306115737
0.2108,-1.969295273,-0.306115737
0.211,-1.90228303,-0.306115737
0.2112,-1.798522137,0.047094729
0.2114,-1.763935173,-0.306115737
0.2116,-1.763935173,-0.306115737
0.2118,-1.66017428,-0.306115737
0.212,-1.523988109,-0.306115737
0.2122,-1.420227216,-0.306115737
0.2124,-1.385640252,-0.306115737
0.2126,-1.351053288,0.047094729
0.2128,-1.28187936,-0.306115737
0.213,-1.145693188,-0.306115737
0.2132,-1.007345332,-0.306115737
0.2134,-0.972758367,-0.306115737
0.2136,-0.938171403,-0.306115737
0.2138,-0.868997475,-0.306115737
0.214,-0.767398268,-0.306115737
0.2142,-0.594463447,-0.306115737
0.2144,-0.490702554,-0.306115737
0.2146,-0.45611559,-0.306115737
0.2148,-0.423690311,-0.306115737
0.215,-0.319929419,-0.306115737
0.2152,-0.216168526,-0.306115737
0.2154,-0.077820669,-0.306115737
0.2156,0.023778538,-0.306115737
0.2158,0.092952466,-0.306115737
0.216,0.162126395,-0.306115737
0.2162,0.265887287,-0.306115737
0.2164,0.436660423,-0.306115737
0.2166,0.540421315,-0.306115737
0.2168,0.609595244,-0.306115737
0.217,0.644182208,-0.306115737
0.2172,0.711194451,0.047094729
0.2174,0.884129272,-0.306115737
0.2176,1.022477128,0.047094729
0.2178,1.057064093,-0.306115737
0.218,1.089489372,-0.306115737
0.2182,1.089489372,-0.306115737
0.2184,1.193250264,-0.306115737
0.2186,1.297011157,-0.306115737
0.2188,1.366185085,-0.306115737
0.219,1.435359013,-0.306115737
0.2192,1.435359013,-0.306115737
0.2194,1.435359013,-0.306115737
0.2196,1.502371256,-0.306115737
0.2198,1.571545185,-0.306115737
0.22,1.606132149,0.047094729
0.2202,1.606132149,-0.306115737
0.2204,1.606132149,-0.306115737
0.2206,1.606132149,-0.306115737
0.2208,1.709893041,-0.306115737
0.221,1.744480006,-0.306115737
0.2212,1.744480006,0.047094729
0.2214,1.709893041,-0.306115737
0.2216,1.744480006,-0.306115737
0.2218,1.744480006,-0.306115737
0.222,1.846079213,-0.306115737
0.2222,1.846079213,-0.306115737
0.2224,1.846079213,-0.306115737
0.2226,1.77906697,-0.306115737
0.2228,1.811492249,-0.306115737
0.223,1.846079213,-0.306115737
0.2232,1.846079213,-0.306115737
0.2234,1.811492249,-0.306115737
0.2236,1.744480006,0.047094729
0.2238,1.744480006,-0.306115737
0.224,1.744480006,-0.306115737
0.2242,1.709893041,-0.306115737
0.2244,1.709893041,-0.306115737
0.2246,1.606132149,-0.306115737
0.2248,1.571545185,-0.306115737
0.225,1.536958221,-0.306115737
0.2252,1.536958221,-0.306115737
0.2254,1.536958221,-0.306115737
0.2256,1.467784292,-0.306115737
0.2258,1.366185085,-0.306115737
0.226,1.297011157,-0.306115737
0.2262,1.262424192,-0.306115737
0.2264,1.297011157,-0.306115737
0.2266,1.262424192,-0.306115737
0.2268,1.1586633,-0.306115737
0.227,1.057064093,-0.306115737
0.2272,1.022477128,-0.306115737
0.2274,1.022477128,-0.306115737
0.2276,0.987890164,-0.306115737
0.2278,0.9533032,-0.306115737
0.228,0.884129272,-0.306115737
0.2282,0.780368379,0.047094729
0.2284,0.711194451,-0.306115737
0.2286,0.711194451,-0.306115737
0.2288,0.644182208,-0.306115737
0.229,0.540421315,-0.306115737
0.2292,0.436660423,-0.306115737
0.2294,0.367486494,-0.306115737
0.2296,0.367486494,-0.306115737
0.2298,0.33289953,-0.306115737
0.23,0.231300323,-0.306115737
0.2302,0.092952466,-0.306115737
0.2304,-0.010808426,-0.306115737
0.2306,-0.04539539,-0.306115737
0.2308,-0.04539539,0.047094729
0.231,-0.077820669,-0.306115737
0.2312,-0.216168526,-0.306115737
0.2314,-0.25075549,-0.306115737
0.2316,-0.319929419,-0.306115737
0.2318,-0.319929419,0.047094729
0.232,-0.319929419,-0.306115737
0.2322,-0.354516383,-0.306115737
0.2324,-0.45611559,-0.306115737
0.2326,-0.490702554,0.047094729
0.2328,-0.559876483,-0.306115737
0.233,-0.559876483,-0.306115737
0.2332,-0.559876483,-0.306115737
0.2334,-0.629050411,-0.306115737
0.2336,-0.732811303,-0.306115737
0.2338,-0.732811303,-0.306115737
0.234,-0.663637375,-0.306115737
0.2342,-0.663637375,-0.306115737
0.2344,-0.698224339,-0.306115737
0.2346,-0.767398268,-0.306115737
0.2348,-0.868997475,0.047094729
0.235,-0.868997475,-0.306115737
0.2352,-0.868997475,-0.306115737
0.2354,-0.903584439,0.047094729
0.2356,-0.938171403,-0.306115737
0.2358,-1.041932296,-0.306115737
0.236,-1.07651926,-0.306115737
0.2362,-1.041932296,-0.306115737
0.2364,-1.007345332,-0.306115737
0.2366,-1.07651926,-0.306115737
0.2368,-1.145693188,-0.306115737
0.237,-1.180280152,-0.306115737
0.2372,-1.180280152,-0.306115737
0.2374,-1.180280152,0.047094729
0.2376,-1.180280152,-0.306115737
0.2378,-1.247292396,-0.306115737
0.238,-1.28187936,0.047094729
0.2382,-1.28187936,-0.306115737
0.2384,-1.28187936,-0.306115737
0.2386,-1.212705431,-0.306115737
0.2388,-1.212705431,-0.306115737
0.239,-1.28187936,-0.306115737
0.2392,-1.28187936,-0.306115737
0.2394,-1.247292396,-0.306115737
0.2396,-1.180280152,-0.306115737
0.2398,-1.111106224,-0.306115737
0.24,-1.180280152,-0.306115737
0.2402,-1.212705431,-0.306115737
0.2404,-1.212705431,-0.306115737
0.2406,-1.180280152,-0.306115737
0.2408,-1.145693188,-0.306115737
0.241,-1.145693188,-0.306115737
0.2412,-1.180280152,-0.306115737
0.2414,-1.180280152,-0.306115737
0.2416,-1.111106224,-0.306115737
0.2418,-1.041932296,-0.306115737
0.242,-1.007345332,-0.306115737
0.2422,-1.007345332,-0.306115737
0.2424,-1.041932296,-0.306115737
0.2426,-1.007345332,0.047094729
0.2428,-0.938171403,-0.306115737
0.243,-0.903584439,-0.306115737
0.2432,-0.868997475,-0.306115737
0.2434,-0.903584439,-0.306115737
0.2436,-0.903584439,-0.306115737
0.2438,-0.834410511,-0.306115737
0.244,-0.767398268,-0.306115737
0.2442,-0.732811303,-0.306115737
0.2444,-0.698224339,-0.306115737
0.2446,-0.698224339,-0.306115737
0.2448,-0.663637375,-0.306115737
0.245,-0.594463447,-0.306115737
0.2452,-0.490702554,-0.306115737
0.2454,-0.45611559,-0.306115737
0.2456,-0.45611559,-0.306115737
0.2458,-0.389103347,-0.306115737
0.246,-0.354516383,-0.306115737
0.2462,-0.25075549,-0.306115737
0.2464,-0.216168526,-0.306115737
0.2466,-0.181581562,-0.306115737
0.2468,-0.181581562,-0.306115737
0.247,-0.146994598,-0.306115737
0.2472,-0.077820669,-0.306115737
0.2474,-0.010808426,-0.306115737
0.2476,0.023778538,-0.306115737
0.2478,0.023778538,-0.306115737
0.248,0.058365502,-0.306115737
0.2482,0.12753943,-0.306115737
0.2484,0.196713359,-0.306115737
0.2486,0.265887287,-0.306115737
0.2488,0.300474251,-0.306115737
0.249,0.300474251,-0.306115737
0.2492,0.367486494,-0.306115737
0.2494,0.436660423,-0.306115737
0.2496,0.505834351,-0.306115737
0.2498,0.609595244,-0.306115737
0.25,0.609595244,-0.306115737
0.2502,0.609595244,-0.306115737
0.2504,0.644182208,-0.306115737
0.2506,0.780368379,-0.306115737
0.2508,0.849542308,-0.306115737
0.251,0.884129272,-0.306115737
0.2512,0.884129272,-0.306115737
0.2514,0.918716236,-0.306115737
0.2516,1.022477128,-0.306115737
0.2518,1.057064093,-0.306115737
0.252,1.089489372,-0.306115737
0.2522,1.089489372,-0.306115737
0.2524,1.089489372,-0.306115737
0.2526,1.124076336,-0.306115737
0.2528,1.227837228,-0.306115737
0.253,1.262424192,-0.306115737
0.2532,1.262424192,-0.306115737
0.2534,1.262424192,-0.306115737
0.2536,1.227837228,-0.306115737
0.2538,1.297011157,-0.306115737
0.254,1.331598121,-0.306115737
0.2542,1.297011157,-0.306115737
0.2544,1.297011157,-0.306115737
0.2546,1.297011157,-0.306115737
0.2548,1.331598121,-0.306115737
0.255,1.366185085,-0.306115737
0.2552,1.366185085,-0.306115737
0.2554,1.331598121,-0.306115737
0.2556,1.297011157,-0.306115737
0.2558,1.297011157,-0.306115737
0.256,1.297011157,-0.306115737
0.2562,1.297011157,0.047094729
0.2564,1.297011157,-0.306115737
0.2566,1.262424192,-0.306115737
0.2568,1.1586633,-0.306115737
0.257,1.1586633,-0.306115737
0.2572,1.193250264,-0.306115737
0.2574,1.193250264,-0.306115737
0.2576,1.193250264,-0.306115737
0.2578,1.057064093,-0.306115737
0.258,1.057064093,-0.306115737
0.2582,1.022477128,-0.306115737
0.2584,1.022477128,-0.306115737
0.2586,0.987890164,-0.306115737
0.2588,0.918716236,-0.306115737
0.259,0.849542308,-0.306115737
0.2592,0.814955343,-0.306115737
0.2594,0.814955343,-0.306115737
0.2596,0.780368379,-0.306115737
0.2598,0.644182208,-0.306115737
0.26,0.575008279,-0.306115737
0.2602,0.505834351,-0.306115737
0.2604,0.505834351,-0.306115737
0.2606,0.471247387,-0.306115737
0.2608,0.436660423,-0.306115737
0.261,0.33289953,-0.306115737
0.2612,0.231300323,-0.306115737
0.2614,0.231300323,-0.306115737
0.2616,0.196713359,-0.306115737
0.2618,0.162126395,-0.306115737
0.262,0.092952466,-0.306115737
0.2622,0.023778538,-0.306115737
0.2624,-0.04539539,-0.306115737
0.2626,-0.04539539,-0.306115737
0.2628,-0.04539539,-0.306115737
0.263,-0.077820669,-0.306115737
0.2632,-0.181581562,-0.306115737
0.2634,-0.285342454,-0.306115737
0.2636,-0.319929419,-0.306115737
0.2638,-0.319929419,-0.306115737
0.264,-0.319929419,-0.306115737
0.2642,-0.389103347,-0.306115737
0.2644,-0.45611559,-0.306115737
0.2646,-0.525289518,-0.306115737
0.2648,-0.559876483,-0.306115737
0.265,-0.559876483,-0.306115737
0.2652,-0.594463447,-0.306115737
0.2654,-0.629050411,0.047094729
0.2656,-0.732811303,-0.306115737
0.2658,-0.767398268,-0.306115737
0.266,-0.767398268,-0.306115737
0.2662,-0.767398268,-0.306115737
0.2664,-0.834410511,-0.306115737
0.2666,-0.903584439,-0.306115737
0.2668,-1.007345332,-0.306115737
0.267,-0.972758367,-0.306115737
0.2672,-0.972758367,-0.306115737
0.2674,-1.007345332,-0.306115737
0.2676,-1.007345332,0.047094729
0.2678,-1.07651926,-0.306115737
0.268,-1.111106224,-0.306115737
0.2682,-1.041932296,-0.306115737
0.2684,-1.041932296,-0.306115737
0.2686,-1.111106224,-0.306115737
0.2688,-1.145693188,-0.306115737
0.269,-1.145693188,-0.306115737
0.2692,-1.145693188,-0.306115737
0.2694,-1.07651926,0.047094729
0.2696,-1.041932296,-0.306115737
0.2698,-1.07651926,-0.306115737
0.27,-1.111106224,-0.306115737
0.2702,-1.111106224,-0.306115737
0.2704,-1.111106224,-0.306115737
0.2706,-1.041932296,-0.306115737
0.2708,-1.041932296,-0.306115737
0.271,-1.111106224,-0.306115737
0.2712,-1.07651926,-0.306115737
0.2714,-1.041932296,-0.306115737
0.2716,-1.007345332,-0.306115737
0.2718,-0.972758367,-0.306115737
0.272,-0.938171403,-0.306115737
0.2722,-1.007345332,-0.306115737
0.2724,-0.938171403,-0.306115737
0.2726,-0.903584439,-0.306115737
0.2728,-0.868997475,0.047094729
0.273,-0.834410511,0.047094729
0.2732,-0.834410511,-0.306115737
0.2734,-0.834410511,-0.306115737
0.2736,-0.767398268,-0.306115737
0.2738,-0.663637375,-0.306115737
0.274,-0.629050411,-0.306115737
0.2742,-0.594463447,0.047094729
0.2744,-0.594463447,-0.306115737
0.2746,-0.594463447,-0.306115737
0.2748,-0.490702554,-0.306115737
0.275,-0.389103347,-0.306115737
0.2752,-0.389103347,-0.306115737
0.2754,-0.389103347,-0.306115737
0.2756,-0.319929419,-0.306115737
0.2758,-0.285342454,-0.306115737
0.276,-0.181581562,-0.306115737
0.2762,-0.112407634,-0.306115737
0.2764,-0.112407634,-0.306115737
0.2766,-0.112407634,-0.306115737
0.2768,-0.112407634,-0.306115737
0.277,-0.04539539,-0.306115737
0.2772,0.058365502,-0.306115737
0.2774,0.092952466,-0.306115737
0.2776,0.058365502,0.047094729
0.2778,0.092952466,-0.306115737
0.278,0.12753943,-0.306115737
0.2782,0.196713359,-0.306115737
0.2784,0.231300323,-0.306115737
0.2786,0.231300323,-0.306115737
0.2788,0.231300323,-0.306115737
0.279,0.265887287,-0.306115737
0.2792,0.33289953,-0.306115737
0.2794,0.367486494,-0.306115737
0.2796,0.436660423,0.047094729
0.2798,0.436660423,-0.306115737
0.28,0.436660423,-0.306115737
0.2802,0.505834351,-0.306115737
0.2804,0.609595244,-0.306115737
0.2806,0.644182208,-0.306115737
0.2808,0.644182208,-0.306115737
0.281,0.609595244,-0.306115737
0.2812,0.644182208,-0.306115737
0.2814,0.711194451,-0.306115737
0.2816,0.780368379,-0.306115737
0.2818,0.814955343,0.047094729
0.282,0.814955343,-0.306115737
0.2822,0.711194451,-0.306115737
0.2824,0.814955343,-0.306115737
0.2826,0.884129272,-0.306115737
0.2828,0.884129272,-0.306115737
0.283,0.884129272,0.047094729
0.2832,0.884129272,-0.306115737
0.2834,0.884129272,-0.306115737
0.2836,0.884129272,-0.306115737
0.2838,0.918716236,0.047094729
0.284,0.918716236,-0.306115737
0.2842,0.884129272,-0.306115737
0.2844,0.884129272,-0.306115737
0.2846,0.918716236,-0.306115737
0.2848,0.918716236,-0.306115737
0.285,0.918716236,-0.306115737
0.2852,0.918716236,-0.306115737
0.2854,0.884129272,-0.306115737
0.2856,0.884129272,-0.306115737
0.2858,0.884129272,-0.306115737
0.286,0.918716236,-0.306115737
0.2862,0.884129272,-0.306115737
0.2864,0.884129272,-0.306115737
0.2866,0.814955343,0.047094729
0.2868,0.814955343,-0.306115737
0.287,0.849542308,-0.306115737
0.2872,0.849542308,-0.306115737
0.2874,0.814955343,-0.306115737
0.2876,0.711194451,-0.306115737
0.2878,0.678769172,-0.306115737
0.288,0.745781415,-0.306115737
0.2882,0.711194451,-0.306115737
0.2884,0.678769172,-0.306115737
0.2886,0.644182208,-0.306115737
0.2888,0.609595244,-0.306115737
0.289,0.540421315,-0.306115737
0.2892,0.575008279,-0.306115737
0.2894,0.540421315,-0.306115737
0.2896,0.505834351,0.047094729
0.2898,0.471247387,-0.306115737
0.29,0.436660423,-0.306115737
0.2902,0.436660423,-0.306115737
0.2904,0.436660423,-0.306115737
0.2906,0.402073459,-0.306115737
0.2908,0.33289953,-0.306115737
0.291,0.300474251,-0.306115737
0.2912,0.265887287,0.047094729
0.2914,0.265887287,-0.306115737
0.2916,0.265887287,-0.306115737
0.2918,0.196713359,-0.306115737
0.292,0.196713359,-0.306115737
0.2922,0.12753943,-0.306115737
0.2924,0.092952466,-0.306115737
0.2926,0.12753943,-0.306115737
0.2928,0.092952466,-0.306115737
0.293,0.058365502,-0.306115737
0.2932,-0.010808426,-0.306115737
0.2934,-0.04539539,-0.306115737
0.2936,-0.04539539,-0.306115737
0.2938,-0.04539539,-0.306115737
0.294,-0.112407634,-0.306115737
0.2942,-0.216168526,-0.306115737
0.2944,-0.25075549,-0.306115737
0.2946,-0.216168526,-0.306115737
0.2948,-0.285342454,-0.306115737
0.295,-0.319929419,-0.306115737
0.2952,-0.319929419,-0.306115737
0.2954,-0.389103347,-0.306115737
0.2956,-0.389103347,-0.306115737
0.2958,-0.423690311,-0.306115737
0.296,-0.45611559,-0.306115737
0.2962,-0.490702554,-0.306115737
0.2964,-0.559876483,-0.306115737
0.2966,-0.594463447,-0.306115737
0.2968,-0.594463447,-0.306115737
0.297,-0.594463447,-0.306115737
0.2972,-0.594463447,-0.306115737
0.2974,-0.629050411,-0.306115737
0.2976,-0.663637375,-0.306115737
0.2978,-0.732811303,-0.306115737
0.298,-0.663637375,-0.306115737
0.2982,-0.663637375,-0.306115737
0.2984,-0.698224339,-0.306115737
0.2986,-0.767398268,-0.306115737
0.2988,-0.767398268,-0.306115737
0.299,-0.767398268,-0.306115737
0.2992,-0.732811303,-0.306115737
0.2994,-0.732811303,-0.306115737
0.2996,-0.767398268,-0.306115737
0.2998,-0.801985232,-0.306115737
0.3,-0.834410511,-0.306115737
0.3002,-0.801985232,-0.306115737
0.3004,-0.767398268,-0.306115737
0.3006,-0.801985232,-0.306115737
0.3008,-0.868997475,-0.306115737
0.301,-0.868997475,-0.306115737
0.3012,-0.834410511,-0.306115737
0.3014,-0.834410511,-0.306115737
0.3016,-0.801985232,-0.306115737
0.3018,-0.868997475,-0.306115737
0.302,-0.868997475,0.047094729
0.3022,-0.834410511,-0.306115737
0.3024,-0.834410511,-0.306115737
0.3026,-0.801985232,0.047094729
0.3028,-0.767398268,-0.306115737
0.303,-0.801985232,-0.306115737
0.3032,-0.801985232,-0.306115737
0.3034,-0.767398268,-0.306115737
0.3036,-0.732811303,-0.306115737
0.3038,-0.663637375,-0.306115737
0.304,-0.698224339,-0.306115737
0.3042,-0.698224339,-0.306115737
0.3044,-0.663637375,-0.306115737
0.3046,-0.594463447,-0.306115737
0.3048,-0.559876483,-0.306115737
0.305,-0.559876483,0.047094729
0.3052,-0.559876483,-0.306115737
0.3054,-0.525289518,-0.306115737
0.3056,-0.490702554,0.047094729
0.3058,-0.423690311,-0.306115737
0.306,-0.423690311,-0.306115737
0.3062,-0.423690311,-0.306115737
0.3064,-0.389103347,-0.306115737
0.3066,-0.354516383,-0.306115737
0.3068,-0.319929419,-0.306115737
0.307,-0.285342454,-0.306115737
0.3072,-0.25075549,-0.306115737
0.3074,-0.216168526,-0.306115737
0.3076,-0.216168526,-0.306115737
0.3078,-0.181581562,-0.306115737
0.308,-0.112407634,-0.306115737
0.3082,-0.077820669,-0.306115737
0.3084,-0.077820669,-0.306115737
0.3086,-0.04539539,-0.306115737
0.3088,-0.04539539,-0.306115737
0.309,0.023778538,-0.306115737
0.3092,0.092952466,-0.306115737
0.3094,0.12753943,-0.306115737
0.3096,0.162126395,-0.306115737
0.3098,0.196713359,-0.306115737
0.31,0.231300323,-0.306115737
0.3102,0.265887287,-0.306115737
0.3104,0.33289953,-0.306115737
0.3106,0.33289953,-0.306115737
0.3108,0.33289953,-0.306115737
0.311,0.367486494,-0.306115737
0.3112,0.436660423,-0.306115737
0.3114,0.471247387,-0.306115737
0.3116,0.505834351,-0.306115737
0.3118,0.540421315,-0.306115737
0.312,0.540421315,-0.306115737
0.3122,0.609595244,-0.306115737
0.3124,0.644182208,-0.306115737
0.3126,0.644182208,-0.306115737
0.3128,0.678769172,-0.306115737
0.313,0.678769172,-0.306115737
0.3132,0.678769172,-0.306115737
0.3134,0.814955343,-0.306115737
0.3136,0.814955343,-0.306115737
0.3138,0.814955343,0.047094729
0.314,0.814955343,-0.306115737
0.3142,0.849542308,-0.306115737
0.3144,0.849542308,-0.306115737
0.3146,0.884129272,-0.306115737
0.3148,0.918716236,-0.306115737
0.315,0.884129272,0.047094729
0.3152,0.884129272,-0.306115737
0.3154,0.884129272,-0.306115737
0.3156,0.918716236,-0.306115737
0.3158,0.9533032,-0.306115737
0.316,0.9533032,-0.306115737
0.3162,0.884129272,-0.306115737
0.3164,0.884129272,-0.306115737
0.3166,0.884129272,-0.306115737
0.3168,0.884129272,-0.306115737
0.317,0.918716236,-0.306115737
0.3172,0.884129272,-0.306115737
0.3174,0.849542308,-0.306115737
0.3176,0.849542308,-0.306115737
0.3178,0.814955343,-0.306115737
0.318,0.849542308,0.047094729
0.3182,0.814955343,-0.306115737
0.3184,0.711194451,-0.306115737
0.3186,0.644182208,-0.306115737
0.3188,0.678769172,-0.306115737
0.319,0.678769172,-0.306115737
0.3192,0.644182208,-0.306115737
0.3194,0.644182208,-0.306115737
0.3196,0.575008279,-0.306115737
0.3198,0.505834351,-0.306115737
0.32,0.540421315,-0.306115737
0.3202,0.575008279,-0.306115737
0.3204,0.505834351,-0.306115737
0.3206,0.471247387,-0.306115737
0.3208,0.436660423,-0.306115737
0.321,0.402073459,-0.306115737
0.3212,0.436660423,-0.306115737
0.3214,0.367486494,-0.306115737
0.3216,0.33289953,0.047094729
0.3218,0.265887287,-0.306115737
0.322,0.231300323,-0.306115737
0.3222,0.231300323,-0.306115737
0.3224,0.231300323,-0.306115737
0.3226,0.196713359,-0.306115737
0.3228,0.12753943,-0.306115737
0.323,0.092952466,-0.306115737
0.3232,0.058365502,-0.306115737
0.3234,0.058365502,0.047094729
0.3236,0.023778538,-0.306115737
0.3238,-0.04539539,-0.306115737
0.324,-0.077820669,0.047094729
0.3242,-0.112407634,-0.306115737
0.3244,-0.181581562,-0.306115737
0.3246,-0.146994598,-0.306115737
0.3248,-0.181581562,-0.306115737
0.325,-0.285342454,-0.306115737
0.3252,-0.319929419,-0.306115737
0.3254,-0.319929419,-0.306115737
0.3256,-0.319929419,-0.306115737
0.3258,-0.354516383,-0.306115737
0.326,-0.354516383,-0.306115737
0.3262,-0.45611559,-0.306115737
0.3264,-0.45611559,-0.306115737
0.3266,-0.45611559,-0.306115737
0.3268,-0.45611559,-0.306115737
0.327,-0.45611559,-0.306115737
0.3272,-0.490702554,-0.306115737
0.3274,-0.559876483,-0.306115737
0.3276,-0.559876483,-0.306115737
0.3278,-0.525289518,-0.306115737
0.328,-0.559876483,-0.306115737
0.3282,-0.559876483,-0.306115737
0.3284,-0.559876483,-0.306115737
0.3286,-0.594463447,-0.306115737
0.3288,-0.594463447,-0.306115737
0.329,-0.594463447,-0.306115737
0.3292,-0.594463447,-0.306115737
0.3294,-0.594463447,-0.306115737
0.3296,-0.594463447,-0.306115737
0.3298,-0.629050411,-0.306115737
0.33,-0.594463447,-0.306115737
0.3302,-0.594463447,-0.306115737
0.3304,-0.594463447,0.047094729
0.3306,-0.594463447,-0.306115737
0.3308,-0.594463447,-0.306115737
0.331,-0.594463447,-0.306115737
0.3312,-0.594463447,-0.306115737
0.3314,-0.594463447,-0.306115737
0.3316,-0.594463447,0.047094729
0.3318,-0.594463447,-0.306115737
0.332,-0.594463447,-0.306115737
0.3322,-0.594463447,-0.306115737
0.3324,-0.559876483,-0.306115737
0.3326,-0.559876483,-0.306115737
0.3328,-0.594463447,-0.306115737
0.333,-0.559876483,-0.306115737
0.3332,-0.525289518,-0.306115737
0.3334,-0.490702554,-0.306115737
0.3336,-0.490702554,-0.306115737
0.3338,-0.490702554,-0.306115737
0.334,-0.490702554,-0.306115737
0.3342,-0.45611559,-0.306115737
0.3344,-0.45611559,-0.306115737
0.3346,-0.389103347,-0.306115737
0.3348,-0.354516383,-0.306115737
0.335,-0.423690311,-0.306115737
0.3352,-0.45611559,0.047094729
0.3354,-0.389103347,-0.306115737
0.3356,-0.354516383,-0.306115737
0.3358,-0.354516383,0.047094729
0.336,-0.389103347,-0.306115737
0.3362,-0.389103347,-0.306115737
0.3364,-0.354516383,-0.306115737
0.3366,-0.319929419,-0.306115737
0.3368,-0.285342454,-0.306115737
0.337,-0.319929419,-0.306115737
0.3372,-0.319929419,-0.306115737
0.3374,-0.319929419,-0.306115737
0.3376,-0.285342454,-0.306115737
0.3378,-0.216168526,-0.306115737
0.338,-0.216168526,-0.306115737
0.3382,-0.181581562,-0.306115737
0.3384,-0.216168526,-0.306115737
0.3386,-0.216168526,-0.306115737
0.3388,-0.181581562,-0.306115737
0.339,-0.112407634,-0.306115737
0.3392,-0.112407634,-0.306115737
0.3394,-0.112407634,-0.306115737
0.3396,-0.077820669,-0.306115737
0.3398,-0.077820669,-0.306115737
0.34,-0.04539539,-0.306115737
0.3402,0.023778538,-0.306115737
0.3404,-0.010808426,-0.306115737
0.3406,-0.010808426,-0.306115737
0.3408,0.023778538,-0.306115737
0.341,0.058365502,-0.306115737
0.3412,0.058365502,-0.306115737
0.3414,0.092952466,-0.306115737
0.3416,0.058365502,-0.306115737
0.3418,0.058365502,-0.306115737
0.342,0.092952466,0.047094729
0.3422,0.092952466,-0.306115737
0.3424,0.12753943,-0.306115737
0.3426,0.162126395,-0.306115737
0.3428,0.092952466,-0.306115737
0.343,0.12753943,-0.306115737
0.3432,0.162126395,-0.306115737
0.3434,0.196713359,-0.306115737
0.3436,0.231300323,-0.306115737
0.3438,0.162126395,-0.306115737
0.344,0.162126395,-0.306115737
0.3442,0.231300323,-0.306115737
0.3444,0.231300323,-0.306115737
0.3446,0.265887287,-0.306115737
0.3448,0.265887287,-0.306115737
0.345,0.231300323,-0.306115737
0.3452,0.265887287,-0.306115737
0.3454,0.300474251,-0.306115737
0.3456,0.33289953,-0.306115737
0.3458,0.33289953,-0.306115737
0.346,0.33289953,-0.306115737
0.3462,0.33289953,-0.306115737
0.3464,0.33289953,-0.306115737
0.3466,0.367486494,-0.306115737
0.3468,0.402073459,-0.306115737
0.347,0.402073459,-0.306115737
0.3472,0.402073459,-0.306115737
0.3474,0.436660423,-0.306115737
0.3476,0.436660423,-0.306115737
0.3478,0.505834351,-0.306115737
0.348,0.471247387,-0.306115737
0.3482,0.436660423,-0.306115737
0.3484,0.471247387,-0.306115737
0.3486,0.471247387,-0.306115737
0.3488,0.505834351,0.047094729
0.349,0.505834351,-0.306115737
0.3492,0.505834351,-0.306115737
0.3494,0.505834351,-0.306115737
0.3496,0.540421315,-0.306115737
0.3498,0.540421315,-0.306115737
0.35,0.540421315,-0.306115737
0.3502,0.609595244,-0.306115737
0.3504,0.540421315,-0.306115737
0.3506,0.505834351,-0.306115737
0.3508,0.540421315,-0.306115737
0.351,0.575008279,-0.306115737
0.3512,0.540421315,-0.306115737
0.3514,0.540421315,-0.306115737
0.3516,0.505834351,-0.306115737
0.3518,0.505834351,-0.306115737
0.352,0.540421315,-0.306115737
0.3522,0.540421315,-0.306115737
0.3524,0.540421315,-0.306115737
0.3526,0.540421315,-0.306115737
0.3528,0.505834351,-0.306115737
0.353,0.505834351,0.047094729
0.3532,0.540421315,-0.306115737
0.3534,0.505834351,-0.306115737
0.3536,0.505834351,-0.306115737
0.3538,0.505834351,-0.306115737
0.354,0.471247387,-0.306115737
0.3542,0.436660423,0.047094729
0.3544,0.471247387,-0.306115737
0.3546,0.436660423,-0.306115737
0.3548,0.367486494,-0.306115737
0.355,0.367486494,-0.306115737
0.3552,0.367486494,-0.306115737
0.3554,0.367486494,-0.306115737
0.3556,0.33289953,-0.306115737
0.3558,0.33289953,-0.306115737
0.356,0.265887287,-0.306115737
0.3562,0.265887287,-0.306115737
0.3564,0.231300323,-0.306115737
0.3566,0.231300323,-0.306115737
0.3568,0.231300323,-0.306115737
0.357,0.162126395,-0.306115737
0.3572,0.12753943,-0.306115737
0.3574,0.12753943,-0.306115737
0.3576,0.092952466,-0.306115737
0.3578,0.092952466,-0.306115737
0.358,0.058365502,-0.306115737
0.3582,0.023778538,-0.306115737
0.3584,-0.04539539,-0.306115737
0.3586,-0.04539539,-0.306115737
0.3588,-0.077820669,-0.306115737
0.359,-0.112407634,-0.306115737
0.3592,-0.181581562,-0.306115737
0.3594,-0.181581562,-0.306115737
0.3596,-0.216168526,-0.306115737
0.3598,-0.181581562,-0.306115737
0.36,-0.216168526,-0.306115737
0.3602,-0.25075549,-0.306115737
0.3604,-0.285342454,-0.306115737
0.3606,-0.319929419,-0.306115737
0.3608,-0.319929419,-0.306115737
0.361,-0.319929419,-0.306115737
0.3612,-0.354516383,-0.306115737
0.3614,-0.423690311,-0.306115737
0.3616,-0.45611559,-0.306115737
0.3618,-0.45611559,-0.306115737
0.362,-0.45611559,-0.306115737
0.3622,-0.490702554,-0.306115737
0.3624,-0.525289518,-0.306115737
0.3626,-0.559876483,0.047094729
0.3628,-0.559876483,-0.306115737
0.363,-0.559876483,-0.306115737
0.3632,-0.559876483,-0.306115737
0.3634,-0.559876483,-0.306115737
0.3636,-0.594463447,-0.306115737
0.3638,-0.594463447,-0.306115737
0.364,-0.629050411,-0.306115737
0.3642,-0.594463447,-0.306115737
0.3644,-0.594463447,-0.306115737
0.3646,-0.594463447,-0.306115737
0.3648,-0.663637375,-0.306115737
0.365,-0.663637375,0.047094729
0.3652,-0.663637375,-0.306115737
0.3654,-0.594463447,-0.306115737
0.3656,-0.629050411,-0.306115737
0.3658,-0.629050411,-0.306115737
0.366,-0.663637375,-0.306115737
0.3662,-0.629050411,-0.306115737
0.3664,-0.594463447,-0.306115737
0.3666,-0.594463447,-0.306115737
0.3668,-0.594463447,-0.306115737
0.367,-0.594463447,-0.306115737
0.3672,-0.629050411,-0.306115737
0.3674,-0.594463447,-0.306115737
0.3676,-0.559876483,-0.306115737
0.3678,-0.525289518,-0.306115737
0.368,-0.559876483,-0.306115737
0.3682,-0.490702554,-0.306115737
0.3684,-0.490702554,-0.306115737
0.3686,-0.45611559,-0.306115737
0.3688,-0.423690311,-0.306115737
0.369,-0.423690311,-0.306115737
0.3692,-0.423690311,-0.306115737
0.3694,-0.389103347,-0.306115737
0.3696,-0.354516383,-0.306115737
0.3698,-0.319929419,-0.306115737
0.37,-0.285342454,-0.306115737
0.3702,-0.319929419,-0.306115737
0.3704,-0.285342454,-0.306115737
0.3706,-0.25075549,-0.306115737
0.3708,-0.216168526,-0.306115737
0.371,-0.181581562,-0.306115737
0.3712,-0.181581562,-0.306115737
0.3714,-0.181581562,-0.306115737
0.3716,-0.146994598,-0.306115737
0.3718,-0.077820669,-0.306115737
0.372,-0.077820669,-0.306115737
0.3722,-0.04539539,-0.306115737
0.3724,-0.04539539,-0.306115737
0.3726,-0.077820669,-0.306115737
0.3728,-0.04539539,-0.306115737
0.373,0.023778538,-0.306115737
0.3732,0.058365502,-0.306115737
0.3734,0.058365502,0.047094729
0.3736,0.058365502,-0.306115737
0.3738,0.058365502,-0.306115737
0.374,0.092952466,0.047094729
0.3742,0.162126395,-0.306115737
0.3744,0.162126395,-0.306115737
0.3746,0.162126395,0.047094729
0.3748,0.162126395,-0.306115737
0.375,0.231300323,-0.306115737
0.3752,0.231300323,-0.306115737
0.3754,0.265887287,-0.306115737
0.3756,0.265887287,-0.306115737
0.3758,0.265887287,-0.306115737
0.376,0.265887287,0.047094729
0.3762,0.300474251,-0.306115737
0.3764,0.33289953,-0.306115737
0.3766,0.33289953,-0.306115737
0.3768,0.33289953,-0.306115737
0.377,0.33289953,-0.306115737
0.3772,0.33289953,-0.306115737
0.3774,0.33289953,-0.306115737
0.3776,0.367486494,-0.306115737
0.3778,0.402073459,-0.306115737
0.378,0.367486494,-0.306115737
0.3782,0.367486494,-0.306115737
0.3784,0.402073459,-0.306115737
0.3786,0.436660423,-0.306115737
0.3788,0.436660423,-0.306115737
0.379,0.402073459,-0.306115737
0.3792,0.367486494,-0.306115737
0.3794,0.367486494,-0.306115737
0.3796,0.402073459,-0.306115737
0.3798,0.436660423,-0.306115737
0.38,0.402073459,-0.306115737
0.3802,0.367486494,-0.306115737
0.3804,0.367486494,-0.306115737
0.3806,0.367486494,0.047094729
0.3808,0.402073459,-0.306115737
0.381,0.402073459,-0.306115737
0.3812,0.402073459,-0.306115737
0.3814,0.33289953,-0.306115737
0.3816,0.33289953,-0.306115737
0.3818,0.367486494,-0.306115737
0.382,0.367486494,-0.306115737
0.3822,0.33289953,-0.306115737
0.3824,0.33289953,-0.306115737
0.3826,0.33289953,-0.306115737
0.3828,0.300474251,-0.306115737
0.383,0.33289953,-0.306115737
0.3832,0.33289953,-0.306115737
0.3834,0.300474251,-0.306115737
0.3836,0.265887287,-0.306115737
0.3838,0.265887287,-0.306115737
0.384,0.265887287,-0.306115737
0.3842,0.265887287,-0.306115737
0.3844,0.265887287,-0.306115737
0.3846,0.265887287,-0.306115737
0.3848,0.231300323,-0.306115737
0.385,0.231300323,-0.306115737
0.3852,0.231300323,-0.306115737
0.3854,0.231300323,-0.306115737
0.3856,0.231300323,-0.306115737
0.3858,0.196713359,-0.306115737
0.386,0.231300323,-0.306115737
0.3862,0.231300323,-0.306115737
0.3864,0.231300323,-0.306115737
0.3866,0.231300323,-0.306115737
0.3868,0.196713359,-0.306115737
0.387,0.162126395,-0.306115737
0.3872,0.196713359,-0.306115737
0.3874,0.196713359,-0.306115737
0.3876,0.196713359,-0.306115737
0.3878,0.162126395,-0.306115737
0.388,0.162126395,-0.306115737
0.3882,0.12753943,-0.306115737
0.3884,0.162126395,-0.306115737
0.3886,0.162126395,-0.306115737
0.3888,0.162126395,-0.306115737
0.389,0.092952466,-0.306115737
0.3892,0.092952466,-0.306115737
0.3894,0.092952466,-0.306115737
0.3896,0.092952466,-0.306115737
0.3898,0.092952466,-0.306115737
0.39,0.023778538,-0.306115737
0.3902,0.023778538,-0.306115737
0.3904,0.023778538,-0.306115737
0.3906,0.023778538,-0.306115737
0.3908,0.023778538,-0.306115737
0.391,-0.010808426,-0.306115737
0.3912,-0.04539539,-0.306115737
0.3914,-0.010808426,-0.306115737
0.3916,-0.077820669,-0.306115737
0.3918,-0.077820669,-0.306115737
0.392,-0.04539539,-0.306115737
0.3922,-0.077820669,-0.306115737
0.3924,-0.112407634,-0.306115737
0.3926,-0.146994598,-0.306115737
0.3928,-0.112407634,-0.306115737
0.393,-0.112407634,-0.306115737
0.3932,-0.146994598,-0.306115737
0.3934,-0.181581562,-0.306115737
0.3936,-0.216168526,-0.306115737
0.3938,-0.216168526,-0.306115737
0.394,-0.216168526,-0.306115737
0.3942,-0.216168526,-0.306115737
0.3944,-0.216168526,-0.306115737
0.3946,-0.25075549,-0.306115737
0.3948,-0.285342454,-0.306115737
0.395,-0.285342454,-0.306115737
0.3952,-0.25075549,-0.306115737
0.3954,-0.285342454,0.047094729
0.3956,-0.285342454,-0.306115737
0.3958,-0.319929419,-0.306115737
0.396,-0.319929419,-0.306115737
0.3962,-0.319929419,-0.306115737
0.3964,-0.319929419,-0.306115737
0.3966,-0.354516383,-0.306115737
0.3968,-0.354516383,0.047094729
0.397,-0.389103347,-0.306115737
0.3972,-0.389103347,-0.306115737
0.3974,-0.354516383,-0.306115737
0.3976,-0.389103347,-0.306115737
0.3978,-0.45611559,-0.306115737
0.398,-0.45611559,-0.306115737
0.3982,-0.45611559,-0.306115737
0.3984,-0.45611559,-0.306115737
0.3986,-0.423690311,-0.306115737
0.3988,-0.45611559,-0.306115737
0.399,-0.45611559,-0.306115737
0.3992,-0.45611559,-0.306115737
0.3994,-0.45611559,-0.306115737
0.3996,-0.45611559,-0.306115737
0.3998,-0.45611559,-0.306115737
0.4,-0.45611559,-0.306115737
0.4002,-0.45611559,-0.306115737
0.4004,-0.45611559,-0.306115737
0.4006,-0.423690311,-0.306115737
0.4008,-0.389103347,0.047094729
0.401,-0.389103347,-0.306115737
0.4012,-0.423690311,-0.306115737
0.4014,-0.45611559,-0.306115737
0.4016,-0.389103347,-0.306115737
0.4018,-0.354516383,-0.306115737
0.402,-0.389103347,0.047094729
0.4022,-0.354516383,0.047094729
0.4024,-0.319929419,-0.306115737
0.4026,-0.354516383,-0.306115737
0.4028,-0.319929419,-0.306115737
0.403,-0.319929419,-0.306115737
0.4032,-0.319929419,-0.306115737
0.4034,-0.285342454,-0.306115737
0.4036,-0.285342454,-0.306115737
0.4038,-0.25075549,-0.306115737
0.404,-0.181581562,-0.306115737
0.4042,-0.181581562,-0.306115737
0.4044,-0.181581562,-0.306115737
0.4046,-0.181581562,-0.306115737
0.4048,-0.146994598,-0.306115737
0.405,-0.112407634,-0.306115737
0.4052,-0.077820669,-0.306115737
0.4054,-0.077820669,-0.306115737
0.4056,-0.077820669,0.047094729
0.4058,-0.04539539,-0.306115737
0.406,-0.010808426,-0.306115737
0.4062,0.023778538,-0.306115737
0.4064,0.058365502,-0.306115737
0.4066,0.058365502,-0.306115737
0.4068,0.092952466,-0.306115737
0.407,0.12753943,-0.306115737
0.4072,0.162126395,-0.306115737
0.4074,0.196713359,-0.306115737
0.4076,0.196713359,-0.306115737
0.4078,0.231300323,-0.306115737
0.408,0.231300323,-0.306115737
0.4082,0.231300323,0.047094729
0.4084,0.265887287,-0.306115737
0.4086,0.300474251,-0.306115737
0.4088,0.265887287,-0.306115737
0.409,0.265887287,-0.306115737
0.4092,0.300474251,-0.306115737
0.4094,0.33289953,-0.306115737
0.4096,0.33289953,-0.306115737
0.4098,0.367486494,-0.306115737
0.41,0.33289953,-0.306115737
0.4102,0.367486494,0.047094729
0.4104,0.367486494,0.047094729
0.4106,0.436660423,-0.306115737
0.4108,0.402073459,-0.306115737
0.411,0.402073459,-0.306115737
0.4112,0.436660423,-0.306115737
0.4114,0.402073459,-0.306115737
0.4116,0.436660423,-0.306115737
0.4118,0.471247387,-0.306115737
0.412,0.436660423,-0.306115737
0.4122,0.436660423,-0.306115737
0.4124,0.471247387,-0.306115737
0.4126,0.436660423,-0.306115737
0.4128,0.436660423,-0.306115737
0.413,0.436660423,-0.306115737
0.4132,0.436660423,0.047094729
0.4134,0.367486494,-0.306115737
0.4136,0.402073459,-0.306115737
0.4138,0.402073459,-0.306115737
0.414,0.402073459,-0.306115737
0.4142,0.367486494,-0.306115737
0.4144,0.33289953,-0.306115737
0.4146,0.33289953,-0.306115737
0.4148,0.33289953,-0.306115737
0.415,0.33289953,0.047094729
0.4152,0.33289953,-0.306115737
0.4154,0.33289953,-0.306115737
0.4156,0.265887287,-0.306115737
0.4158,0.265887287,-0.306115737
0.416,0.265887287,-0.306115737
0.4162,0.265887287,-0.306115737
0.4164,0.231300323,-0.306115737
0.4166,0.196713359,-0.306115737
0.4168,0.196713359,-0.306115737
0.417,0.196713359,-0.306115737
0.4172,0.162126395,-0.306115737
0.4174,0.162126395,-0.306115737
0.4176,0.12753943,-0.306115737
0.4178,0.092952466,-0.306115737
0.418,0.092952466,-0.306115737
0.4182,0.092952466,-0.306115737
0.4184,0.092952466,-0.306115737
0.4186,0.092952466,-0.306115737
0.4188,0.058365502,-0.306115737
0.419,0.023778538,-0.306115737
0.4192,-0.010808426,-0.306115737
0.4194,-0.010808426,-0.306115737
0.4196,-0.010808426,-0.306115737
0.4198,-0.077820669,-0.306115737
0.42,-0.077820669,0.047094729
0.4202,-0.077820669,-0.306115737
0.4204,-0.112407634,0.047094729
0.4206,-0.077820669,0.047094729
0.4208,-0.077820669,-0.306115737
0.421,-0.146994598,-0.306115737
0.4212,-0.146994598,-0.306115737
0.4214,-0.112407634,0.047094729
0.4216,-0.146994598,-0.306115737
0.4218,-0.112407634,-0.306115737
0.422,-0.181581562,-0.306115737
0.4222,-0.216168526,0.047094729
0.4224,-0.216168526,-0.306115737
0.4226,-0.216168526,-0.306115737
0.4228,-0.181581562,-0.306115737
0.423,-0.181581562,-0.306115737
0.4232,-0.216168526,-0.306115737
0.4234,-0.25075549,-0.306115737
0.4236,-0.216168526,-0.306115737
0.4238,-0.216168526,-0.306115737
0.424,-0.216168526,-0.306115737
0.4242,-0.216168526,-0.306115737
0.4244,-0.216168526,-0.306115737
0.4246,-0.25075549,-0.306115737
0.4248,-0.216168526,-0.306115737
0.425,-0.216168526,-0.306115737
0.4252,-0.216168526,0.047094729
0.4254,-0.216168526,-0.306115737
0.4256,-0.216168526,-0.306115737
0.4258,-0.25075549,-0.306115737
0.426,-0.216168526,-0.306115737
0.4262,-0.216168526,-0.306115737
0.4264,-0.25075549,-0.306115737
0.4266,-0.216168526,-0.306115737
0.4268,-0.216168526,-0.306115737
0.427,-0.216168526,-0.306115737
0.4272,-0.181581562,-0.306115737
0.4274,-0.216168526,-0.306115737
0.4276,-0.216168526,-0.306115737
0.4278,-0.216168526,-0.306115737
0.428,-0.216168526,-0.306115737
0.4282,-0.181581562,-0.306115737
0.4284,-0.181581562,-0.306115737
0.4286,-0.181581562,-0.306115737
0.4288,-0.181581562,0.047094729
0.429,-0.181581562,-0.306115737
0.4292,-0.181581562,-0.306115737
0.4294,-0.181581562,0.047094729
0.4296,-0.146994598,-0.306115737
0.4298,-0.146994598,-0.306115737
0.43,-0.181581562,-0.306115737
0.4302,-0.146994598,0.047094729
0.4304,-0.112407634,-0.306115737
0.4306,-0.146994598,-0.306115737
0.4308,-0.146994598,-0.306115737
0.431,-0.181581562,-0.306115737
0.4312,-0.112407634,-0.306115737
0.4314,-0.146994598,-0.306115737
0.4316,-0.112407634,-0.306115737
0.4318,-0.112407634,-0.306115737
0.432,-0.146994598,-0.306115737
0.4322,-0.112407634,0.047094729
0.4324,-0.146994598,-0.306115737
0.4326,-0.112407634,-0.306115737
0.4328,-0.112407634,-0.306115737
0.433,-0.112407634,0.047094729
0.4332,-0.112407634,-0.306115737
0.4334,-0.146994598,-0.306115737
0.4336,-0.112407634,-0.306115737
0.4338,-0.077820669,-0.306115737
0.434,-0.077820669,-0.306115737
0.4342,-0.077820669,0.047094729
0.4344,-0.112407634,-0.306115737
0.4346,-0.077820669,-0.306115737
0.4348,-0.077820669,0.047094729
0.435,-0.077820669,-0.306115737
0.4352,-0.077820669,-0.306115737
0.4354,-0.077820669,-0.306115737
0.4356,-0.112407634,0.047094729
0.4358,-0.112407634,0.047094729
0.436,-0.04539539,0.047094729
0.4362,-0.077820669,-0.306115737
0.4364,-0.077820669,0.047094729
0.4366,-0.077820669,-0.306115737
0.4368,-0.077820669,-0.306115737
0.437,-0.04539539,-0.306115737
0.4372,-0.04539539,-0.306115737
0.4374,-0.010808426,-0.306115737
0.4376,-0.077820669,0.047094729
0.4378,-0.04539539,-0.306115737
0.438,-0.010808426,-0.306115737
0.4382,-0.010808426,-0.306115737
0.4384,0.023778538,0.047094729
0.4386,-0.010808426,-0.306115737
0.4388,-0.010808426,-0.306115737
0.439,0.023778538,-0.306115737
0.4392,0.023778538,-0.306115737
0.4394,0.058365502,-0.306115737
0.4396,0.058365502,0.047094729
0.4398,0.023778538,-0.306115737
0.44,0.023778538,-0.306115737
0.4402,0.058365502,-0.306115737
0.4404,0.092952466,-0.306115737
0.4406,0.092952466,0.047094729
0.4408,0.092952466,-0.306115737
0.441,0.092952466,-0.306115737
0.4412,0.092952466,0.047094729
0.4414,0.12753943,-0.306115737
0.4416,0.12753943,-0.306115737
0.4418,0.162126395,0.047094729
0.442,0.162126395,-0.306115737
0.4422,0.162126395,-0.306115737
0.4424,0.162126395,-0.306115737
0.4426,0.231300323,0.047094729
0.4428,0.196713359,-0.306115737
0.443,0.231300323,-0.306115737
0.4432,0.196713359,-0.306115737
0.4434,0.231300323,-0.306115737
0.4436,0.231300323,-0.306115737
0.4438,0.265887287,-0.306115737
0.444,0.265887287,-0.306115737
0.4442,0.231300323,-0.306115737
0.4444,0.265887287,-0.306115737
0.4446,0.231300323,-0.306115737
0.4448,0.265887287,-0.306115737
0.445,0.300474251,-0.306115737
0.4452,0.300474251,-0.306115737
0.4454,0.265887287,-0.306115737
0.4456,0.300474251,-0.306115737
0.4458,0.33289953,-0.306115737
0.446,0.33289953,-0.306115737
0.4462,0.33289953,-0.306115737
0.4464,0.33289953,-0.306115737
0.4466,0.300474251,-0.306115737
0.4468,0.33289953,-0.306115737
0.447,0.33289953,-0.306115737
0.4472,0.33289953,-0.306115737
0.4474,0.300474251,-0.306115737
0.4476,0.33289953,-0.306115737
0.4478,0.300474251,0.047094729
0.448,0.33289953,-0.306115737
0.4482,0.300474251,-0.306115737
0.4484,0.300474251,-0.306115737
0.4486,0.300474251,-0.306115737
0.4488,0.265887287,-0.306115737
0.449,0.265887287,-0.306115737
0.4492,0.300474251,-0.306115737
0.4494,0.265887287,-0.306115737
0.4496,0.231300323,-0.306115737
0.4498,0.231300323,-0.306115737
0.45,0.196713359,-0.306115737
0.4502,0.231300323,-0.306115737
0.4504,0.231300323,-0.306115737
0.4506,0.196713359,0.047094729
0.4508,0.196713359,0.047094729
0.451,0.162126395,-0.306115737
0.4512,0.162126395,-0.306115737
0.4514,0.162126395,0.047094729
0.4516,0.12753943,-0.306115737
0.4518,0.092952466,-0.306115737
0.452,0.092952466,0.047094729
0.4522,0.058365502,-0.306115737
0.4524,0.023778538,-0.306115737
0.4526,0.023778538,-0.306115737
0.4528,0.058365502,-0.306115737
0.453,-0.010808426,-0.306115737
0.4532,-0.04539539,-0.306115737
0.4534,-0.04539539,-0.306115737
0.4536,-0.04539539,-0.306115737
0.4538,-0.04539539,-0.306115737
0.454,-0.077820669,-0.306115737
0.4542,-0.112407634,-0.306115737
0.4544,-0.112407634,-0.306115737
0.4546,-0.112407634,-0.306115737
0.4548,-0.146994598,0.047094729
0.455,-0.146994598,0.047094729
0.4552,-0.181581562,-0.306115737
0.4554,-0.216168526,-0.306115737
0.4556,-0.216168526,0.047094729
0.4558,-0.216168526,-0.306115737
0.456,-0.25075549,-0.306115737
0.4562,-0.25075549,-0.306115737
0.4564,-0.285342454,-0.306115737
0.4566,-0.319929419,0.047094729
0.4568,-0.285342454,-0.306115737
0.457,-0.285342454,-0.306115737
0.4572,-0.319929419,-0.306115737
0.4574,-0.319929419,-0.306115737
0.4576,-0.319929419,-0.306115737
0.4578,-0.319929419,-0.306115737
0.458,-0.319929419,-0.306115737
0.4582,-0.319929419,-0.306115737
0.4584,-0.319929419,0.047094729
0.4586,-0.354516383,-0.306115737
0.4588,-0.319929419,-0.306115737
0.459,-0.354516383,0.047094729
0.4592,-0.319929419,-0.306115737
0.4594,-0.354516383,-0.306115737
0.4596,-0.389103347,0.047094729
0.4598,-0.354516383,-0.306115737
0.46,-0.319929419,-0.306115737
0.4602,-0.319929419,-0.306115737
0.4604,-0.319929419,0.047094729
0.4606,-0.319929419,-0.306115737
0.4608,-0.354516383,-0.306115737
0.461,-0.354516383,0.047094729
0.4612,-0.319929419,-0.306115737
0.4614,-0.319929419,-0.306115737
0.4616,-0.319929419,-0.306115737
0.4618,-0.319929419,-0.306115737
0.462,-0.354516383,-0.306115737
0.4622,-0.285342454,-0.306115737
0.4624,-0.285342454,-0.306115737
0.4626,-0.319929419,-0.306115737
0.4628,-0.25075549,-0.306115737
0.463,-0.25075549,-0.306115737
0.4632,-0.25075549,-0.306115737
0.4634,-0.216168526,-0.306115737
0.4636,-0.181581562,-0.306115737
0.4638,-0.216168526,0.047094729
0.464,-0.216168526,-0.306115737
0.4642,-0.181581562,-0.306115737
0.4644,-0.181581562,0.047094729
0.4646,-0.112407634,-0.306115737
0.4648,-0.112407634,-0.306115737
0.465,-0.112407634,-0.306115737
0.4652,-0.112407634,-0.306115737
0.4654,-0.077820669,-0.306115737
0.4656,-0.077820669,-0.306115737
0.4658,-0.04539539,-0.306115737
0.466,-0.04539539,-0.306115737
0.4662,-0.04539539,-0.306115737
0.4664,-0.04539539,-0.306115737
0.4666,-0.04539539,-0.306115737
0.4668,-0.010808426,-0.306115737
0.467,0.058365502,-0.306115737
0.4672,0.023778538,-0.306115737
0.4674,0.023778538,-0.306115737
0.4676,0.058365502,-0.306115737
0.4678,0.058365502,-0.306115737
0.468,0.092952466,0.047094729
0.4682,0.092952466,-0.306115737
0.4684,0.092952466,-0.306115737
0.4686,0.092952466,0.047094729
0.4688,0.12753943,-0.306115737
0.469,0.12753943,-0.306115737
0.4692,0.12753943,0.047094729
0.4694,0.162126395,-0.306115737
0.4696,0.092952466,-0.306115737
0.4698,0.12753943,-0.306115737
0.47,0.162126395,-0.306115737
0.4702,0.196713359,-0.306115737
0.4704,0.196713359,-0.306115737
0.4706,0.196713359,0.047094729
0.4708,0.162126395,-0.306115737
0.471,0.196713359,-0.306115737
0.4712,0.196713359,-0.306115737
0.4714,0.196713359,-0.306115737
0.4716,0.196713359,-0.306115737
0.4718,0.196713359,-0.306115737
0.472,0.196713359,-0.306115737
0.4722,0.196713359,-0.306115737
0.4724,0.231300323,-0.306115737
0.4726,0.196713359,-0.306115737
0.4728,0.196713359,-0.306115737
0.473,0.196713359,-0.306115737
0.4732,0.196713359,-0.306115737
0.4734,0.231300323,0.047094729
0.4736,0.196713359,-0.306115737
0.4738,0.231300323,-0.306115737
0.474,0.196713359,-0.306115737
0.4742,0.196713359,-0.306115737
0.4744,0.231300323,-0.306115737
0.4746,0.196713359,-0.306115737
0.4748,0.196713359,-0.306115737
0.475,0.196713359,-0.306115737
0.4752,0.196713359,-0.306115737
0.4754,0.196713359,-0.306115737
0.4756,0.196713359,-0.306115737
0.4758,0.162126395,-0.306115737
0.476,0.196713359,-0.306115737
0.4762,0.12753943,-0.306115737
0.4764,0.162126395,-0.306115737
0.4766,0.162126395,-0.306115737
0.4768,0.162126395,-0.306115737
0.477,0.162126395,-0.306115737
0.4772,0.162126395,-0.306115737
0.4774,0.092952466,-0.306115737
0.4776,0.12753943,-0.306115737
0.4778,0.162126395,-0.306115737
0.478,0.162126395,-0.306115737
0.4782,0.12753943,-0.306115737
0.4784,0.12753943,-0.306115737
0.4786,0.092952466,-0.306115737
0.4788,0.092952466,0.047094729
0.479,0.092952466,-0.306115737
0.4792,0.12753943,-0.306115737
0.4794,0.092952466,-0.306115737
0.4796,0.092952466,-0.306115737
0.4798,0.092952466,-0.306115737
0.48,0.092952466,-0.306115737
0.4802,0.092952466,-0.306115737
0.4804,0.092952466,-0.306115737
0.4806,0.092952466,-0.306115737
0.4808,0.092952466,-0.306115737
0.481,0.092952466,0.047094729
0.4812,0.092952466,-0.306115737
0.4814,0.092952466,-0.306115737
0.4816,0.092952466,-0.306115737
0.4818,0.092952466,-0.306115737
0.482,0.058365502,-0.306115737
0.4822,0.092952466,-0.306115737
0.4824,0.092952466,-0.306115737
0.4826,0.058365502,-0.306115737
0.4828,0.023778538,-0.306115737
0.483,0.058365502,-0.306115737
0.4832,0.058365502,-0.306115737
0.4834,0.058365502,-0.306115737
0.4836,0.092952466,-0.306115737
0.4838,0.092952466,-0.306115737
0.484,0.023778538,-0.306115737
0.4842,0.058365502,-0.306115737
0.4844,0.058365502,-0.306115737
0.4846,0.058365502,-0.306115737
0.4848,0.058365502,-0.306115737
0.485,0.023778538,-0.306115737
0.4852,-0.010808426,-0.306115737
0.4854,0.058365502,-0.306115737
0.4856,0.023778538,-0.306115737
0.4858,0.023778538,-0.306115737
0.486,0.023778538,-0.306115737
0.4862,-0.010808426,-0.306115737
0.4864,-0.010808426,-0.306115737
0.4866,-0.010808426,-0.306115737
0.4868,-0.04539539,-0.306115737
0.487,-0.04539539,0.047094729
0.4872,-0.04539539,-0.306115737
0.4874,-0.077820669,-0.306115737
0.4876,-0.077820669,-0.306115737
0.4878,-0.04539539,-0.306115737
0.488,-0.04539539,-0.306115737
0.4882,-0.077820669,-0.306115737
0.4884,-0.077820669,0.047094729
0.4886,-0.112407634,-0.306115737
0.4888,-0.077820669,-0.306115737
0.489,-0.077820669,0.047094729
0.4892,-0.112407634,-0.306115737
0.4894,-0.112407634,-0.306115737
0.4896,-0.146994598,-0.306115737
0.4898,-0.181581562,-0.306115737
0.49,-0.112407634,0.047094729
0.4902,-0.146994598,0.047094729
0.4904,-0.146994598,-0.306115737
0.4906,-0.146994598,-0.306115737
0.4908,-0.181581562,-0.306115737
0.491,-0.181581562,-0.306115737
0.4912,-0.146994598,0.047094729
0.4914,-0.146994598,-0.306115737
0.4916,-0.181581562,-0.306115737
0.4918,-0.181581562,-0.306115737
0.492,-0.216168526,-0.306115737
0.4922,-0.216168526,-0.306115737
0.4924,-0.216168526,-0.306115737
0.4926,-0.216168526,-0.306115737
0.4928,-0.216168526,-0.306115737
0.493,-0.216168526,-0.306115737
0.4932,-0.216168526,-0.306115737
0.4934,-0.181581562,-0.306115737
0.4936,-0.216168526,-0.306115737
0.4938,-0.216168526,-0.306115737
0.494,-0.216168526,-0.306115737
0.4942,-0.216168526,-0.306115737
0.4944,-0.216168526,-0.306115737
0.4946,-0.216168526,-0.306115737
0.4948,-0.216168526,0.047094729
0.495,-0.216168526,-0.306115737
0.4952,-0.216168526,-0.306115737
0.4954,-0.216168526,-0.306115737
0.4956,-0.216168526,-0.306115737
0.4958,-0.216168526,0.047094729
0.496,-0.216168526,-0.306115737
0.4962,-0.216168526,-0.306115737
0.4964,-0.181581562,-0.306115737
0.4966,-0.181581562,-0.306115737
0.4968,-0.181581562,-0.306115737
0.497,-0.181581562,-0.306115737
0.4972,-0.216168526,-0.306115737
0.4974,-0.181581562,-0.306115737
0.4976,-0.181581562,-0.306115737
0.4978,-0.112407634,-0.306115737
0.498,-0.146994598,-0.306115737
0.4982,-0.112407634,-0.306115737
0.4984,-0.146994598,-0.306115737
0.4986,-0.112407634,-0.306115737
0.4988,-0.112407634,-0.306115737
0.499,-0.077820669,-0.306115737
0.4992,-0.077820669,-0.306115737
0.4994,-0.077820669,-0.306115737
0.4996,-0.077820669,-0.306115737
0.4998,-0.04539539,-0.306115737
0.5,-0.04539539,0.047094729
0.5002,-0.010808426,-0.306115737
0.5004,-0.04539539,-0.306115737
0.5006,-0.04539539,-0.306115737
0.5008,-0.010808426,-0.306115737
0.501,0.023778538,-0.306115737
0.5012,0.023778538,-0.306115737
0.5014,0.023778538,0.047094729
0.5016,0.023778538,-0.306115737
0.5018,-0.010808426,-0.306115737
0.502,0.058365502,-0.306115737
0.5022,0.058365502,-0.306115737
0.5024,0.058365502,-0.306115737
0.5026,0.092952466,-0.306115737
0.5028,0.058365502,-0.306115737
0.503,0.092952466,-0.306115737
0.5032,0.092952466,-0.306115737
0.5034,0.092952466,-0.306115737
0.5036,0.092952466,-0.306115737
0.5038,0.12753943,-0.306115737
0.504,0.162126395,-0.306115737
0.5042,0.092952466,0.047094729
0.5044,0.196713359,-0.306115737
0.5046,0.162126395,-0.306115737
0.5048,0.12753943,0.047094729
0.505,0.196713359,-0.306115737
0.5052,0.196713359,-0.306115737
0.5054,0.162126395,0.047094729
0.5056,0.231300323,0.047094729
0.5058,0.231300323,-0.306115737
0.506,0.196713359,-0.306115737
0.5062,0.231300323,-0.306115737
0.5064,0.196713359,-0.306115737
0.5066,0.231300323,-0.306115737
0.5068,0.196713359,-0.306115737
0.507,0.196713359,-0.306115737
0.5072,0.196713359,-0.306115737
0.5074,0.196713359,-0.306115737
0.5076,0.162126395,-0.306115737
0.5078,0.231300323,-0.306115737
0.508,0.196713359,-0.306115737
0.5082,0.162126395,-0.306115737
0.5084,0.196713359,-0.306115737
0.5086,0.196713359,-0.306115737
0.5088,0.162126395,-0.306115737
0.509,0.162126395,-0.306115737
0.5092,0.162126395,-0.306115737
0.5094,0.12753943,-0.306115737
0.5096,0.12753943,-0.306115737
0.5098,0.162126395,-0.306115737
0.51,0.162126395,-0.306115737
0.5102,0.12753943,0.047094729
0.5104,0.12753943,-0.306115737
0.5106,0.092952466,-0.306115737
0.5108,0.12753943,-0.306115737
0.511,0.162126395,-0.306115737
0.5112,0.12753943,-0.306115737
0.5114,0.092952466,-0.306115737
0.5116,0.092952466,-0.306115737
0.5118,0.092952466,-0.306115737
0.512,0.092952466,-0.306115737
0.5122,0.092952466,-0.306115737
0.5124,0.092952466,0.047094729
0.5126,0.092952466,-0.306115737
0.5128,0.092952466,-0.306115737
0.513,0.058365502,-0.306115737
0.5132,0.058365502,-0.306115737
0.5134,0.058365502,-0.306115737
0.5136,-0.010808426,-0.306115737
0.5138,0.058365502,0.047094729
0.514,0.023778538,-0.306115737
0.5142,-0.010808426,-0.306115737
0.5144,-0.010808426,0.047094729
0.5146,-0.010808426,-0.306115737
0.5148,-0.04539539,-0.306115737
0.515,-0.010808426,-0.306115737
0.5152,-0.04539539,-0.306115737
0.5154,-0.04539539,-0.306115737
0.5156,-0.04539539,-0.306115737
0.5158,-0.04539539,-0.306115737
0.516,-0.077820669,-0.306115737
0.5162,-0.04539539,-0.306115737
0.5164,-0.077820669,-0.306115737
0.5166,-0.077820669,-0.306115737
0.5168,-0.077820669,-0.306115737
0.517,-0.077820669,-0.306115737
0.5172,-0.112407634,0.047094729
0.5174,-0.077820669,-0.306115737
0.5176,-0.077820669,-0.306115737
0.5178,-0.077820669,0.047094729
0.518,-0.077820669,-0.306115737
0.5182,-0.077820669,-0.306115737
0.5184,-0.077820669,0.047094729
0.5186,-0.077820669,-0.306115737
0.5188,-0.077820669,-0.306115737
0.519,-0.077820669,-0.306115737
0.5192,-0.077820669,0.047094729
0.5194,-0.112407634,-0.306115737
0.5196,-0.112407634,0.047094729
0.5198,-0.077820669,-0.306115737
0.52,-0.077820669,-0.306115737
0.5202,-0.077820669,-0.306115737
0.5204,-0.077820669,-0.306115737
0.5206,-0.077820669,-0.306115737
0.5208,-0.077820669,-0.306115737
0.521,-0.077820669,-0.306115737
0.5212,-0.077820669,-0.306115737
0.5214,-0.077820669,0.047094729
0.5216,-0.077820669,-0.306115737
0.5218,-0.077820669,-0.306115737
0.522,-0.077820669,0.047094729
0.5222,-0.077820669,-0.306115737
0.5224,-0.077820669,-0.306115737
0.5226,-0.077820669,0.047094729
0.5228,-0.077820669,-0.306115737
0.523,-0.077820669,-0.306115737
0.5232,-0.04539539,0.047094729
0.5234,-0.04539539,-0.306115737
0.5236,-0.077820669,-0.306115737
0.5238,-0.077820669,-0.306115737
0.524,-0.04539539,0.047094729
0.5242,-0.04539539,-0.306115737
0.5244,-0.04539539,-0.306115737
0.5246,-0.04539539,0.047094729
0.5248,-0.04539539,0.047094729
0.525,-0.04539539,-0.306115737
0.5252,-0.04539539,-0.306115737
0.5254,-0.04539539,-0.306115737
0.5256,-0.04539539,-0.306115737
0.5258,-0.04539539,-0.306115737
0.526,-0.04539539,-0.306115737
0.5262,-0.04539539,0.047094729
0.5264,-0.04539539,-0.306115737
0.5266,-0.04539539,-0.306115737
0.5268,-0.010808426,-0.306115737
0.527,-0.04539539,-0.306115737
0.5272,-0.04539539,-0.306115737
0.5274,-0.010808426,-0.306115737
0.5276,-0.010808426,-0.306115737
0.5278,-0.04539539,-0.306115737
0.528,-0.04539539,0.047094729
0.5282,-0.04539539,-0.306115737
0.5284,-0.077820669,-0.306115737
0.5286,-0.04539539,0.047094729
0.5288,-0.04539539,-0.306115737
0.529,-0.04539539,-0.306115737
0.5292,-0.04539539,-0.306115737
0.5294,-0.077820669,-0.306115737
0.5296,-0.077820669,-0.306115737
0.5298,-0.04539539,-0.306115737
0.53,-0.04539539,-0.306115737
0.5302,-0.04539539,-0.306115737
0.5304,-0.04539539,-0.306115737
0.5306,-0.04539539,-0.306115737
0.5308,-0.04539539,-0.306115737
0.531,-0.010808426,-0.306115737
0.5312,-0.04539539,-0.306115737
0.5314,-0.04539539,0.047094729
0.5316,-0.04539539,0.047094729
0.5318,-0.04539539,-0.306115737
0.532,-0.04539539,-0.306115737
0.5322,-0.010808426,-0.306115737
0.5324,-0.010808426,-0.306115737
0.5326,-0.010808426,0.047094729
0.5328,-0.010808426,0.047094729
0.533,-0.04539539,-0.306115737
0.5332,-0.010808426,-0.306115737
0.5334,0.023778538,-0.306115737
0.5336,-0.04539539,-0.306115737
0.5338,-0.04539539,-0.306115737
0.534,-0.04539539,-0.306115737
0.5342,-0.010808426,-0.306115737
0.5344,-0.010808426,0.047094729
0.5346,-0.04539539,-0.306115737
0.5348,-0.04539539,-0.306115737
0.535,-0.04539539,-0.306115737
0.5352,-0.010808426,-0.306115737
0.5354,-0.010808426,-0.306115737
0.5356,-0.04539539,0.047094729
0.5358,-0.010808426,-0.306115737
0.536,-0.04539539,-0.306115737
0.5362,-0.04539539,-0.306115737
0.5364,0.023778538,-0.306115737
0.5366,-0.010808426,-0.306115737
0.5368,-0.010808426,-0.306115737
0.537,-0.010808426,-0.306115737
0.5372,-0.04539539,-0.306115737
0.5374,0.023778538,0.047094729
0.5376,0.023778538,0.047094729
0.5378,-0.010808426,0.047094729
0.538,0.023778538,-0.306115737
0.5382,0.023778538,-0.306115737
0.5384,-0.010808426,-0.306115737
0.5386,0.023778538,0.047094729
0.5388,0.023778538,-0.306115737
0.539,-0.010808426,-0.306115737
0.5392,0.023778538,-0.306115737
0.5394,0.058365502,-0.306115737
0.5396,0.023778538,0.047094729
0.5398,0.058365502,-0.306115737
0.54,0.058365502,-0.306115737
0.5402,-0.010808426,0.047094729
0.5404,0.058365502,-0.306115737
0.5406,0.058365502,-0.306115737
0.5408,0.058365502,-0.306115737
0.541,0.058365502,0.047094729
0.5412,0.058365502,-0.306115737
0.5414,0.023778538,-0.306115737
0.5416,0.092952466,-0.306115737
0.5418,0.058365502,-0.306115737
0.542,0.058365502,-0.306115737
0.5422,0.058365502,-0.306115737
0.5424,0.058365502,-0.306115737
0.5426,0.058365502,0.047094729
0.5428,0.058365502,-0.306115737
0.543,0.092952466,-0.306115737
0.5432,0.058365502,0.047094729
0.5434,0.092952466,-0.306115737
0.5436,0.058365502,-0.306115737
0.5438,0.058365502,-0.306115737
0.544,0.058365502,-0.306115737
0.5442,0.058365502,-0.306115737
0.5444,0.058365502,-0.306115737
0.5446,0.058365502,-0.306115737
0.5448,0.023778538,-0.306115737
0.545,0.058365502,0.047094729
0.5452,0.058365502,-0.306115737
0.5454,0.058365502,-0.306115737
0.5456,0.058365502,-0.306115737
0.5458,0.058365502,0.047094729
0.546,0.058365502,-0.306115737
0.5462,0.092952466,-0.306115737
0.5464,0.092952466,-0.306115737
0.5466,0.058365502,-0.306115737
0.5468,0.058365502,-0.306115737
0.547,0.058365502,-0.306115737
0.5472,0.023778538,-0.306115737
0.5474,0.058365502,0.047094729
0.5476,0.058365502,-0.306115737
0.5478,0.023778538,0.047094729
0.548,0.058365502,-0.306115737
0.5482,0.058365502,-0.306115737
0.5484,0.023778538,0.047094729
0.5486,0.058365502,-0.306115737
0.5488,-0.010808426,-0.306115737
0.549,-0.04539539,-0.306115737
0.5492,-0.04539539,-0.306115737
0.5494,-0.010808426,-0.306115737
0.5496,-0.010808426,-0.306115737
0.5498,-0.010808426,0.047094729
0.55,-0.010808426,-0.306115737
0.5502,-0.010808426,-0.306115737
0.5504,-0.010808426,-0.306115737
0.5506,-0.010808426,-0.306115737
0.5508,-0.04539539,-0.306115737
0.551,-0.010808426,-0.306115737
0.5512,-0.04539539,-0.306115737
0.5514,-0.04539539,0.047094729
0.5516,-0.04539539,-0.306115737
0.5518,-0.04539539,-0.306115737
0.552,-0.04539539,-0.306115737
0.5522,-0.04539539,-0.306115737
0.5524,-0.077820669,-0.306115737
0.5526,-0.04539539,0.047094729
0.5528,-0.04539539,0.047094729
0.553,-0.04539539,-0.306115737
0.5532,-0.04539539,-0.306115737
0.5534,-0.077820669,0.047094729
0.5536,-0.077820669,-0.306115737
0.5538,-0.04539539,-0.306115737
0.554,-0.04539539,-0.306115737
0.5542,-0.04539539,-0.306115737
0.5544,-0.04539539,-0.306115737
0.5546,-0.077820669,-0.306115737
0.5548,-0.077820669,0.047094729
0.555,-0.04539539,0.047094729
0.5552,-0.04539539,-0.306115737
0.5554,-0.077820669,-0.306115737
0.5556,-0.077820669,-0.306115737
0.5558,-0.077820669,-0.306115737
0.556,-0.077820669,0.047094729
0.5562,-0.04539539,-0.306115737
0.5564,-0.077820669,-0.306115737
0.5566,-0.04539539,-0.306115737
0.5568,-0.077820669,0.047094729
0.557,-0.077820669,-0.306115737
0.5572,-0.077820669,-0.306115737
0.5574,-0.04539539,-0.306115737
0.5576,-0.04539539,-0.306115737
0.5578,-0.077820669,-0.306115737
0.558,-0.077820669,-0.306115737
0.5582,-0.04539539,-0.306115737
0.5584,-0.04539539,-0.306115737
0.5586,-0.04539539,-0.306115737
0.5588,-0.04539539,-0.306115737
0.559,-0.077820669,-0.306115737
0.5592,-0.04539539,-0.306115737
0.5594,-0.04539539,-0.306115737
0.5596,-0.04539539,-0.306115737
0.5598,-0.04539539,-0.306115737
0.56,-0.04539539,-0.306115737
0.5602,-0.077820669,-0.306115737
0.5604,-0.010808426,-0.306115737
0.5606,-0.010808426,-0.306115737
0.5608,-0.010808426,-0.306115737
0.561,-0.010808426,-0.306115737
0.5612,-0.010808426,-0.306115737
0.5614,-0.010808426,-0.306115737
0.5616,0.023778538,-0.306115737
0.5618,-0.010808426,-0.306115737
0.562,-0.010808426,-0.306115737
0.5622,-0.010808426,-0.306115737
0.5624,-0.010808426,0.047094729
0.5626,-0.010808426,-0.306115737
0.5628,0.023778538,-0.306115737
0.563,0.023778538,-0.306115737
0.5632,-0.010808426,-0.306115737
0.5634,0.023778538,-0.306115737
0.5636,-0.010808426,-0.306115737
0.5638,-0.010808426,-0.306115737
0.564,0.058365502,-0.306115737
0.5642,0.023778538,-0.306115737
0.5644,-0.010808426,0.047094729
0.5646,0.023778538,-0.306115737
0.5648,0.023778538,-0.306115737
0.565,0.058365502,0.047094729
0.5652,0.058365502,-0.306115737
0.5654,0.058365502,-0.306115737
0.5656,0.023778538,-0.306115737
0.5658,0.058365502,-0.306115737
0.566,0.058365502,-0.306115737
0.5662,0.058365502,-0.306115737
0.5664,0.058365502,-0.306115737
0.5666,0.058365502,-0.306115737
0.5668,0.058365502,-0.306115737
0.567,0.058365502,-0.306115737
0.5672,0.023778538,-0.306115737
0.5674,0.058365502,-0.306115737
0.5676,0.058365502,-0.306115737
0.5678,0.023778538,-0.306115737
0.568,0.058365502,0.047094729
0.5682,0.058365502,-0.306115737
0.5684,0.023778538,0.047094729
0.5686,0.058365502,0.047094729
0.5688,0.023778538,-0.306115737
0.569,-0.010808426,-0.306115737
0.5692,-0.010808426,-0.306115737
0.5694,-0.010808426,-0.306115737
0.5696,-0.010808426,-0.306115737
0.5698,-0.010808426,0.047094729
0.57,-0.010808426,-0.306115737
0.5702,-0.04539539,-0.306115737
0.5704,-0.010808426,0.047094729
0.5706,-0.010808426,-0.306115737
0.5708,-0.04539539,0.047094729
0.571,-0.010808426,-0.306115737
0.5712,-0.04539539,-0.306115737
0.5714,-0.010808426,-0.306115737
0.5716,-0.010808426,-0.306115737
0.5718,-0.04539539,-0.306115737
0.572,-0.077820669,0.047094729
0.5722,-0.077820669,-0.306115737
0.5724,-0.077820669,-0.306115737
0.5726,-0.077820669,-0.306115737
0.5728,-0.04539539,-0.306115737
0.573,-0.04539539,-0.306115737
0.5732,-0.04539539,0.047094729
0.5734,-0.010808426,-0.306115737
0.5736,-0.04539539,-0.306115737
0.5738,-0.04539539,-0.306115737
0.574,-0.010808426,0.047094729
0.5742,-0.04539539,-0.306115737
0.5744,-0.04539539,-0.306115737
0.5746,-0.04539539,-0.306115737
0.5748,-0.077820669,-0.306115737
0.575,-0.04539539,-0.306115737
0.5752,-0.077820669,-0.306115737
0.5754,-0.077820669,-0.306115737
0.5756,-0.077820669,-0.306115737
0.5758,-0.077820669,-0.306115737
0.576,-0.04539539,-0.306115737
0.5762,-0.077820669,-0.306115737
0.5764,-0.04539539,-0.306115737
0.5766,-0.077820669,-0.306115737
0.5768,-0.077820669,-0.306115737
0.577,-0.04539539,-0.306115737
0.5772,-0.04539539,-0.306115737
0.5774,-0.04539539,-0.306115737
0.5776,-0.04539539,-0.306115737
0.5778,-0.04539539,-0.306115737
0.578,-0.04539539,0.047094729
0.5782,-0.010808426,-0.306115737
0.5784,-0.010808426,-0.306115737
0.5786,-0.010808426,0.047094729
0.5788,-0.010808426,-0.306115737
0.579,-0.010808426,-0.306115737
0.5792,-0.010808426,-0.306115737
0.5794,0.023778538,-0.306115737
0.5796,-0.010808426,-0.306115737
0.5798,0.023778538,-0.306115737
0.58,-0.010808426,-0.306115737
0.5802,0.023778538,-0.306115737
0.5804,0.023778538,-0.306115737
0.5806,0.023778538,-0.306115737
0.5808,-0.010808426,-0.306115737
0.581,0.023778538,-0.306115737
0.5812,0.023778538,-0.306115737
0.5814,-0.010808426,-0.306115737
0.5816,0.023778538,-0.306115737
0.5818,0.023778538,-0.306115737
0.582,0.023778538,-0.306115737
0.5822,0.058365502,0.047094729
0.5824,0.058365502,-0.306115737
0.5826,-0.010808426,-0.306115737
0.5828,0.058365502,-0.306115737
0.583,0.058365502,-0.306115737
0.5832,0.023778538,-0.306115737
0.5834,0.058365502,-0.306115737
0.5836,0.058365502,-0.306115737
0.5838,0.023778538,-0.306115737
0.584,0.058365502,-0.306115737
0.5842,0.023778538,0.047094729
0.5844,0.023778538,-0.306115737
0.5846,0.058365502,-0.306115737
0.5848,0.058365502,-0.306115737
0.585,0.058365502,-0.306115737
0.5852,0.058365502,-0.306115737
0.5854,0.058365502,-0.306115737
0.5856,0.058365502,-0.306115737
0.5858,0.058365502,-0.306115737
0.586,0.058365502,-0.306115737
0.5862,0.092952466,-0.306115737
0.5864,0.058365502,0.047094729
0.5866,0.058365502,-0.306115737
0.5868,0.058365502,0.047094729
0.587,0.058365502,-0.306115737
0.5872,0.058365502,-0.306115737
0.5874,0.023778538,-0.306115737
0.5876,0.058365502,-0.306115737
0.5878,0.058365502,-0.306115737
0.588,0.023778538,0.047094729
0.5882,0.058365502,0.047094729
0.5884,0.023778538,-0.306115737
0.5886,-0.010808426,-0.306115737
0.5888,-0.010808426,0.047094729
0.589,0.023778538,-0.306115737
0.5892,-0.010808426,-0.306115737
0.5894,-0.010808426,-0.306115737
0.5896,-0.010808426,-0.306115737
0.5898,-0.010808426,0.047094729
0.59,-0.010808426,0.047094729
0.5902,-0.010808426,-0.306115737
0.5904,-0.010808426,0.047094729
0.5906,-0.010808426,0.047094729
0.5908,-0.04539539,-0.306115737
0.591,-0.04539539,0.047094729
0.5912,-0.04539539,-0.306115737
0.5914,-0.04539539,-0.306115737
0.5916,-0.04539539,0.047094729
0.5918,-0.04539539,-0.306115737
0.592,-0.077820669,-0.306115737
0.5922,-0.077820669,-0.306115737
0.5924,-0.04539539,-0.306115737
0.5926,-0.077820669,-0.306115737
0.5928,-0.077820669,-0.306115737
0.593,-0.077820669,-0.306115737
0.5932,-0.077820669,-0.306115737
0.5934,-0.077820669,-0.306115737
0.5936,-0.04539539,-0.306115737
0.5938,-0.077820669,-0.306115737
0.594,-0.112407634,0.047094729
0.5942,-0.077820669,-0.306115737
0.5944,-0.077820669,-0.306115737
0.5946,-0.077820669,-0.306115737
0.5948,-0.04539539,-0.306115737
0.595,-0.04539539,-0.306115737
0.5952,-0.077820669,0.047094729
0.5954,-0.04539539,-0.306115737
0.5956,-0.077820669,-0.306115737
0.5958,-0.077820669,0.047094729
0.596,-0.04539539,-0.306115737
0.5962,-0.077820669,-0.306115737
0.5964,-0.04539539,-0.306115737
0.5966,-0.077820669,-0.306115737
0.5968,-0.04539539,-0.306115737
0.597,-0.04539539,-0.306115737
0.5972,-0.04539539,0.047094729
0.5974,-0.04539539,-0.306115737
0.5976,-0.04539539,-0.306115737
0.5978,-0.077820669,-0.306115737
0.598,-0.04539539,-0.306115737
0.5982,-0.04539539,-0.306115737
0.5984,-0.04539539,-0.306115737
0.5986,-0.04539539,0.047094729
0.5988,-0.04539539,0.047094729
0.599,-0.010808426,-0.306115737
0.5992,-0.04539539,-0.306115737
0.5994,-0.010808426,0.047094729
0.5996,-0.010808426,-0.306115737
0.5998,-0.04539539,-0.306115737
0.6,-0.010808426,0.047094729
0.6002,-0.010808426,-0.306115737
0.6004,-0.010808426,-0.306115737
0.6006,-0.010808426,0.047094729
0.6008,-0.010808426,-0.306115737
0.601,-0.04539539,-0.306115737
0.6012,-0.010808426,-0.306115737
0.6014,0.023778538,-0.306115737
0.6016,0.023778538,-0.306115737
0.6018,-0.010808426,-0.306115737
0.602,0.023778538,-0.306115737
0.6022,0.023778538,-0.306115737
0.6024,0.058365502,-0.306115737
0.6026,0.058365502,-0.306115737
0.6028,0.023778538,-0.306115737
0.603,-0.010808426,-0.306115737
0.6032,0.023778538,-0.306115737
0.6034,0.023778538,0.047094729
0.6036,0.058365502,-0.306115737
0.6038,0.058365502,-0.306115737
0.604,0.058365502,0.047094729
0.6042,0.058365502,-0.306115737
0.6044,0.023778538,-0.306115737
0.6046,0.023778538,-0.306115737
0.6048,0.058365502,0.047094729
0.605,0.058365502,-0.306115737
0.6052,0.023778538,-0.306115737
0.6054,0.058365502,0.047094729
0.6056,0.058365502,-0.306115737
0.6058,0.058365502,-0.306115737
0.606,0.092952466,0.047094729
0.6062,0.058365502,-0.306115737
0.6064,0.023778538,-0.306115737
0.6066,0.058365502,-0.306115737
0.6068,0.058365502,-0.306115737
0.607,0.058365502,-0.306115737
0.6072,0.058365502,-0.306115737
0.6074,0.023778538,-0.306115737
0.6076,0.023778538,-0.306115737
0.6078,0.023778538,-0.306115737
0.608,0.058365502,-0.306115737
0.6082,0.058365502,-0.306115737
0.6084,0.058365502,-0.306115737
0.6086,0.023778538,-0.306115737
0.6088,0.023778538,-0.306115737
0.609,0.058365502,-0.306115737
0.6092,0.058365502,-0.306115737
0.6094,0.058365502,0.047094729
0.6096,0.058365502,0.047094729
0.6098,0.023778538,-0.306115737
0.61,-0.010808426,-0.306115737
0.6102,0.058365502,-0.306115737
0.6104,0.023778538,-0.306115737
0.6106,-0.010808426,-0.306115737
0.6108,-0.010808426,-0.306115737
0.611,-0.010808426,-0.306115737
0.6112,-0.04539539,-0.306115737
0.6114,-0.010808426,-0.306115737
0.6116,-0.010808426,-0.306115737
0.6118,-0.010808426,-0.306115737
0.612,-0.010808426,-0.306115737
0.6122,-0.04539539,-0.306115737
0.6124,-0.010808426,-0.306115737
0.6126,-0.010808426,0.047094729
0.6128,-0.04539539,-0.306115737
0.613,-0.04539539,0.047094729
0.6132,-0.04539539,-0.306115737
0.6134,-0.010808426,-0.306115737
0.6136,-0.010808426,0.047094729
0.6138,-0.010808426,-0.306115737
0.614,-0.010808426,-0.306115737
0.6142,-0.010808426,-0.306115737
0.6144,-0.010808426,-0.306115737
0.6146,-0.010808426,-0.306115737
0.6148,-0.010808426,-0.306115737
0.615,-0.010808426,-0.306115737
0.6152,-0.04539539,-0.306115737
0.6154,-0.010808426,-0.306115737
0.6156,-0.010808426,-0.306115737
0.6158,-0.010808426,-0.306115737
0.616,-0.010808426,-0.306115737
0.6162,-0.04539539,-0.306115737
0.6164,-0.010808426,-0.306115737
0.6166,-0.010808426,-0.306115737
0.6168,-0.010808426,-0.306115737
0.617,-0.010808426,0.047094729
0.6172,-0.010808426,-0.306115737
0.6174,-0.010808426,-0.306115737
0.6176,-0.010808426,-0.306115737
0.6178,-0.010808426,0.047094729
0.618,-0.010808426,-0.306115737
0.6182,-0.04539539,-0.306115737
0.6184,-0.010808426,-0.306115737
0.6186,-0.010808426,-0.306115737
0.6188,-0.04539539,-0.306115737
0.619,-0.010808426,-0.306115737
0.6192,-0.010808426,-0.306115737
0.6194,-0.010808426,-0.306115737
0.6196,-0.010808426,0.047094729
0.6198,-0.010808426,-0.306115737
0.62,0.023778538,-0.306115737
0.6202,0.058365502,-0.306115737
0.6204,0.023778538,-0.306115737
0.6206,0.023778538,0.047094729
0.6208,0.058365502,-0.306115737
0.621,0.023778538,-0.306115737
0.6212,0.058365502,-0.306115737
0.6214,0.058365502,-0.306115737
0.6216,0.058365502,-0.306115737
0.6218,0.023778538,-0.306115737
0.622,0.058365502,0.047094729
0.6222,0.058365502,-0.306115737
0.6224,0.058365502,-0.306115737
0.6226,0.058365502,-0.306115737
0.6228,0.023778538,-0.306115737
0.623,0.023778538,-0.306115737
0.6232,0.023778538,0.047094729
0.6234,-0.010808426,-0.306115737
0.6236,-0.010808426,-0.306115737
0.6238,0.058365502,-0.306115737
0.624,-0.010808426,0.047094729
0.6242,-0.010808426,-0.306115737
0.6244,-0.010808426,-0.306115737
0.6246,-0.010808426,-0.306115737
0.6248,-0.010808426,-0.306115737
0.625,-0.010808426,-0.306115737
0.6252,-0.010808426,-0.306115737
0.6254,-0.04539539,-0.306115737
0.6256,-0.010808426,-0.306115737
0.6258,-0.010808426,-0.306115737
0.626,-0.04539539,0.047094729
0.6262,-0.04539539,-0.306115737
0.6264,-0.04539539,-0.306115737
0.6266,-0.077820669,0.047094729
0.6268,-0.04539539,-0.306115737
0.627,-0.04539539,-0.306115737
0.6272,-0.04539539,-0.306115737
0.6274,-0.04539539,-0.306115737
0.6276,-0.077820669,-0.306115737
0.6278,-0.04539539,-0.306115737
0.628,-0.04539539,-0.306115737
0.6282,-0.04539539,-0.306115737
0.6284,-0.077820669,-0.306115737
0.6286,-0.04539539,-0.306115737
0.6288,-0.04539539,-0.306115737
0.629,-0.04539539,-0.306115737
0.6292,-0.04539539,-0.306115737
0.6294,-0.04539539,-0.306115737
0.6296,-0.077820669,-0.306115737
0.6298,-0.077820669,-0.306115737
0.63,-0.077820669,-0.306115737
0.6302,-0.077820669,-0.306115737
0.6304,-0.077820669,-0.306115737
0.6306,-0.077820669,-0.306115737
0.6308,-0.077820669,-0.306115737
0.631,-0.077820669,-0.306115737
0.6312,-0.077820669,-0.306115737
0.6314,-0.077820669,0.047094729
0.6316,-0.077820669,-0.306115737
0.6318,-0.112407634,-0.306115737
0.632,-0.112407634,-0.306115737
0.6322,-0.077820669,-0.306115737
0.6324,-0.077820669,-0.306115737
0.6326,-0.077820669,0.047094729
0.6328,-0.077820669,-0.306115737
0.633,-0.077820669,-0.306115737
0.6332,-0.077820669,-0.306115737
0.6334,-0.077820669,-0.306115737
0.6336,-0.077820669,0.047094729
0.6338,-0.077820669,-0.306115737
0.634,-0.077820669,-0.306115737
0.6342,-0.077820669,-0.306115737
0.6344,-0.077820669,-0.306115737
0.6346,-0.04539539,-0.306115737
0.6348,-0.04539539,0.047094729
0.635,-0.077820669,-0.306115737
0.6352,-0.04539539,-0.306115737
0.6354,-0.077820669,-0.306115737
0.6356,-0.04539539,0.047094729
0.6358,-0.04539539,-0.306115737
0.636,-0.077820669,-0.306115737
0.6362,-0.04539539,0.047094729
0.6364,-0.04539539,0.047094729
0.6366,-0.04539539,-0.306115737
0.6368,-0.04539539,-0.306115737
0.637,-0.010808426,-0.306115737
0.6372,-0.04539539,-0.306115737
0.6374,-0.010808426,-0.306115737
0.6376,-0.010808426,-0.306115737
0.6378,-0.010808426,-0.306115737
0.638,-0.010808426,-0.306115737
0.6382,0.023778538,-0.306115737
0.6384,-0.04539539,-0.306115737
0.6386,-0.010808426,-0.306115737
0.6388,-0.010808426,-0.306115737
0.639,-0.010808426,0.047094729
0.6392,0.058365502,-0.306115737
0.6394,0.023778538,-0.306115737
0.6396,0.023778538,0.047094729
0.6398,0.058365502,-0.306115737
0.64,0.058365502,-0.306115737
0.6402,0.058365502,0.047094729
0.6404,0.058365502,-0.306115737
0.6406,0.058365502,-0.306115737
0.6408,0.058365502,-0.306115737
0.641,0.092952466,-0.306115737
0.6412,0.092952466,-0.306115737
0.6414,0.092952466,-0.306115737
0.6416,0.092952466,-0.306115737
0.6418,0.092952466,-0.306115737
0.642,0.092952466,-0.306115737
0.6422,0.092952466,-0.306115737
0.6424,0.092952466,-0.306115737
0.6426,0.092952466,-0.306115737
0.6428,0.092952466,-0.306115737
0.643,0.092952466,-0.306115737
0.6432,0.092952466,0.047094729
0.6434,0.092952466,-0.306115737
0.6436,0.092952466,-0.306115737
0.6438,0.092952466,0.047094729
0.644,0.092952466,-0.306115737
0.6442,0.092952466,-0.306115737
0.6444,0.092952466,-0.306115737
0.6446,0.092952466,-0.306115737
0.6448,0.092952466,-0.306115737
0.645,0.092952466,0.047094729
0.6452,0.092952466,-0.306115737
0.6454,0.058365502,-0.306115737
0.6456,0.092952466,-0.306115737
0.6458,0.058365502,-0.306115737
0.646,0.058365502,0.047094729
0.6462,0.092952466,-0.306115737
0.6464,0.058365502,-0.306115737
0.6466,0.058365502,0.047094729
0.6468,0.092952466,0.047094729
0.647,0.058365502,-0.306115737
0.6472,0.023778538,0.047094729
0.6474,0.058365502,-0.306115737
0.6476,0.058365502,-0.306115737
0.6478,0.023778538,0.047094729
0.648,0.023778538,-0.306115737
0.6482,0.023778538,-0.306115737
0.6484,-0.010808426,-0.306115737
0.6486,0.023778538,0.047094729
0.6488,0.058365502,-0.306115737
0.649,-0.010808426,0.047094729
0.6492,-0.010808426,-0.306115737
0.6494,-0.010808426,-0.306115737
0.6496,-0.010808426,-0.306115737
0.6498,-0.010808426,0.047094729
0.65,-0.010808426,-0.306115737
0.6502,-0.04539539,-0.306115737
0.6504,-0.010808426,-0.306115737
0.6506,-0.04539539,-0.306115737
0.6508,-0.04539539,0.047094729
0.651,-0.010808426,-0.306115737
0.6512,-0.04539539,-0.306115737
0.6514,-0.04539539,-0.306115737
0.6516,-0.04539539,-0.306115737
0.6518,-0.04539539,-0.306115737
0.652,-0.077820669,0.047094729
0.6522,-0.04539539,0.047094729
0.6524,-0.077820669,-0.306115737
0.6526,-0.077820669,0.047094729
0.6528,-0.04539539,-0.306115737
0.653,-0.04539539,-0.306115737
0.6532,-0.04539539,0.047094729
0.6534,-0.04539539,-0.306115737
0.6536,-0.04539539,-0.306115737
0.6538,-0.04539539,0.047094729
0.654,-0.077820669,0.047094729
0.6542,-0.04539539,-0.306115737
0.6544,-0.04539539,-0.306115737
0.6546,-0.010808426,-0.306115737
0.6548,-0.04539539,-0.306115737
0.655,-0.04539539,0.047094729
0.6552,-0.04539539,-0.306115737
0.6554,-0.04539539,-0.306115737
0.6556,-0.04539539,-0.306115737
0.6558,-0.04539539,-0.306115737
0.656,-0.04539539,-0.306115737
0.6562,-0.04539539,0.047094729
0.6564,-0.04539539,-0.306115737
0.6566,-0.04539539,-0.306115737
0.6568,-0.04539539,0.047094729
0.657,-0.04539539,-0.306115737
0.6572,-0.04539539,-0.306115737
0.6574,-0.077820669,0.047094729
0.6576,-0.04539539,-0.306115737
0.6578,-0.04539539,-0.306115737
0.658,-0.010808426,0.047094729
0.6582,-0.010808426,-0.306115737
0.6584,-0.04539539,-0.306115737
0.6586,-0.04539539,-0.306115737
0.6588,-0.04539539,-0.306115737
0.659,-0.04539539,0.047094729
0.6592,-0.04539539,0.047094729
0.6594,-0.04539539,-0.306115737
0.6596,-0.04539539,0.047094729
0.6598,-0.04539539,-0.306115737
0.66,-0.010808426,-0.306115737
0.6602,-0.04539539,-0.306115737
0.6604,-0.04539539,0.047094729
0.6606,-0.04539539,-0.306115737
0.6608,-0.077820669,-0.306115737
0.661,-0.04539539,-0.306115737
0.6612,-0.04539539,-0.306115737
0.6614,-0.077820669,-0.306115737
0.6616,-0.04539539,0.047094729
0.6618,-0.04539539,-0.306115737
0.662,-0.04539539,-0.306115737
0.6622,-0.04539539,-0.306115737
0.6624,-0.04539539,-0.306115737
0.6626,-0.04539539,-0.306115737
0.6628,-0.04539539,-0.306115737
0.663,-0.010808426,-0.306115737
0.6632,-0.04539539,-0.306115737
0.6634,-0.04539539,-0.306115737
0.6636,-0.04539539,-0.306115737
0.6638,-0.04539539,0.047094729
0.664,-0.04539539,-0.306115737
0.6642,-0.04539539,-0.306115737
0.6644,-0.04539539,0.047094729
0.6646,-0.04539539,0.047094729
0.6648,-0.077820669,-0.306115737
0.665,-0.077820669,-0.306115737
0.6652,-0.04539539,-0.306115737
0.6654,-0.04539539,-0.306115737
0.6656,-0.04539539,-0.306115737
0.6658,-0.04539539,0.047094729
0.666,-0.04539539,-0.306115737
0.6662,-0.04539539,0.047094729
0.6664,-0.077820669,0.047094729
0.6666,-0.077820669,-0.306115737
0.6668,-0.04539539,0.047094729
0.667,-0.077820669,0.047094729
0.6672,-0.04539539,0.047094729
0.6674,-0.04539539,-0.306115737
0.6676,-0.077820669,-0.306115737
0.6678,-0.077820669,-0.306115737
0.668,-0.04539539,0.047094729
0.6682,-0.04539539,-0.306115737
0.6684,-0.04539539,-0.306115737
0.6686,-0.04539539,0.047094729
0.6688,-0.04539539,-0.306115737
0.669,-0.077820669,-0.306115737
0.6692,-0.04539539,0.047094729
0.6694,-0.04539539,-0.306115737
0.6696,-0.04539539,0.047094729
0.6698,-0.077820669,0.047094729
0.67,-0.04539539,-0.306115737
0.6702,-0.04539539,-0.306115737
0.6704,-0.04539539,-0.306115737
0.6706,-0.04539539,-0.306115737
0.6708,-0.04539539,-0.306115737
0.671,-0.010808426,-0.306115737
0.6712,-0.04539539,-0.306115737
0.6714,-0.04539539,0.047094729
0.6716,-0.04539539,-0.306115737
0.6718,-0.010808426,-0.306115737
0.672,-0.010808426,0.047094729
0.6722,-0.010808426,-0.306115737
0.6724,-0.010808426,-0.306115737
0.6726,-0.04539539,-0.306115737
0.6728,-0.010808426,-0.306115737
0.673,-0.010808426,-0.306115737
0.6732,-0.010808426,0.047094729
0.6734,-0.010808426,0.047094729
0.6736,-0.010808426,-0.306115737
0.6738,-0.04539539,0.047094729
0.674,-0.010808426,-0.306115737
0.6742,0.023778538,-0.306115737
0.6744,-0.010808426,-0.306115737
0.6746,0.023778538,-0.306115737
0.6748,0.023778538,-0.306115737
0.675,-0.010808426,-0.306115737
0.6752,0.023778538,-0.306115737
0.6754,0.058365502,-0.306115737
0.6756,0.023778538,-0.306115737
0.6758,0.058365502,-0.306115737
0.676,0.058365502,-0.306115737
0.6762,0.058365502,0.047094729
0.6764,0.058365502,-0.306115737
0.6766,0.058365502,-0.306115737
0.6768,0.058365502,0.047094729
0.677,0.092952466,-0.306115737
0.6772,0.092952466,-0.306115737
0.6774,0.092952466,-0.306115737
0.6776,0.092952466,-0.306115737
0.6778,0.092952466,-0.306115737
0.678,0.092952466,0.047094729
0.6782,0.092952466,0.047094729
0.6784,0.092952466,-0.306115737
0.6786,0.12753943,0.047094729
0.6788,0.092952466,-0.306115737
0.679,0.092952466,-0.306115737
0.6792,0.092952466,-0.306115737
0.6794,0.092952466,-0.306115737
0.6796,0.092952466,0.047094729
0.6798,0.092952466,-0.306115737
0.68,0.092952466,-0.306115737
0.6802,0.092952466,-0.306115737
0.6804,0.092952466,-0.306115737
0.6806,0.092952466,-0.306115737
0.6808,0.092952466,-0.306115737
0.681,0.092952466,0.047094729
0.6812,0.092952466,-0.306115737
0.6814,0.092952466,-0.306115737
0.6816,0.092952466,-0.306115737
0.6818,0.092952466,-0.306115737
0.682,0.092952466,-0.306115737
0.6822,0.092952466,0.047094729
0.6824,0.058365502,-0.306115737
0.6826,0.023778538,-0.306115737
0.6828,0.058365502,-0.306115737
0.683,0.058365502,-0.306115737
0.6832,0.023778538,-0.306115737
0.6834,0.058365502,0.047094729
0.6836,0.023778538,-0.306115737
0.6838,0.023778538,-0.306115737
0.684,0.058365502,-0.306115737
0.6842,0.058365502,-0.306115737
0.6844,0.023778538,0.047094729
0.6846,0.023778538,-0.306115737
0.6848,-0.010808426,-0.306115737
0.685,-0.010808426,-0.306115737
0.6852,-0.010808426,-0.306115737
0.6854,-0.010808426,-0.306115737
0.6856,-0.04539539,-0.306115737
0.6858,-0.04539539,-0.306115737
0.686,-0.077820669,-0.306115737
0.6862,-0.04539539,-0.306115737
0.6864,-0.04539539,-0.306115737
0.6866,-0.04539539,-0.306115737
0.6868,-0.077820669,0.047094729
0.687,-0.077820669,0.047094729
0.6872,-0.077820669,-0.306115737
0.6874,-0.077820669,-0.306115737
0.6876,-0.077820669,0.047094729
0.6878,-0.077820669,-0.306115737
0.688,-0.112407634,-0.306115737
0.6882,-0.077820669,-0.306115737
0.6884,-0.077820669,0.047094729
0.6886,-0.077820669,-0.306115737
0.6888,-0.077820669,-0.306115737
0.689,-0.112407634,0.047094729
0.6892,-0.112407634,0.047094729
0.6894,-0.077820669,-0.306115737
0.6896,-0.077820669,-0.306115737
0.6898,-0.112407634,0.047094729
0.69,-0.077820669,-0.306115737
0.6902,-0.112407634,-0.306115737
0.6904,-0.112407634,0.047094729
0.6906,-0.077820669,-0.306115737
0.6908,-0.112407634,-0.306115737
0.691,-0.112407634,0.047094729
0.6912,-0.077820669,-0.306115737
0.6914,-0.077820669,-0.306115737
0.6916,-0.077820669,-0.306115737
0.6918,-0.077820669,-0.306115737
0.692,-0.077820669,-0.306115737
0.6922,-0.077820669,-0.306115737
0.6924,-0.077820669,-0.306115737
0.6926,-0.077820669,-0.306115737
0.6928,-0.077820669,-0.306115737
0.693,-0.077820669,-0.306115737
0.6932,-0.077820669,0.047094729
0.6934,-0.077820669,-0.306115737
0.6936,-0.077820669,-0.306115737
0.6938,-0.077820669,-0.306115737
0.694,-0.04539539,-0.306115737
0.6942,-0.077820669,-0.306115737
0.6944,-0.077820669,0.047094729
0.6946,-0.077820669,0.047094729
0.6948,-0.077820669,-0.306115737
0.695,-0.077820669,0.047094729
0.6952,-0.04539539,0.047094729
0.6954,-0.04539539,-0.306115737
0.6956,-0.04539539,-0.306115737
0.6958,-0.04539539,0.047094729
0.696,-0.04539539,-0.306115737
0.6962,-0.04539539,-0.306115737
0.6964,-0.04539539,-0.306115737
0.6966,-0.04539539,-0.306115737
0.6968,-0.04539539,-0.306115737
0.697,-0.010808426,-0.306115737
0.6972,-0.010808426,-0.306115737
0.6974,-0.010808426,-0.306115737
0.6976,-0.010808426,-0.306115737
0.6978,-0.010808426,-0.306115737
0.698,-0.04539539,0.047094729
0.6982,-0.010808426,0.047094729
0.6984,0.023778538,-0.306115737
0.6986,-0.010808426,0.047094729
0.6988,-0.010808426,-0.306115737
0.699,-0.010808426,-0.306115737
0.6992,-0.010808426,-0.306115737
0.6994,-0.010808426,0.047094729
0.6996,0.023778538,-0.306115737
0.6998,-0.010808426,-0.306115737
0.7,0.023778538,-0.306115737
0.7002,0.023778538,-0.306115737
0.7004,-0.010808426,-0.306115737
0.7006,0.058365502,0.047094729
0.7008,0.023778538,-0.306115737
0.701,-0.010808426,-0.306115737
0.7012,0.023778538,0.047094729
0.7014,0.023778538,-0.306115737
0.7016,-0.010808426,0.047094729
0.7018,0.023778538,-0.306115737
0.702,-0.010808426,-0.306115737
0.7022,-0.010808426,-0.306115737
0.7024,0.023778538,-0.306115737
0.7026,0.023778538,-0.306115737
0.7028,0.058365502,-0.306115737
0.703,0.023778538,-0.306115737
0.7032,-0.010808426,-0.306115737
0.7034,0.023778538,0.047094729
0.7036,0.023778538,0.047094729
0.7038,0.023778538,-0.306115737
0.704,0.023778538,0.047094729
0.7042,0.023778538,-0.306115737
0.7044,0.023778538,-0.306115737
0.7046,0.023778538,0.047094729
0.7048,0.058365502,-0.306115737
0.705,0.023778538,-0.306115737
0.7052,0.023778538,-0.306115737
0.7054,-0.010808426,0.047094729
0.7056,-0.010808426,-0.306115737
0.7058,-0.010808426,-0.306115737
0.706,-0.010808426,0.047094729
0.7062,0.023778538,-0.306115737
0.7064,-0.010808426,0.047094729
0.7066,0.023778538,-0.306115737
0.7068,-0.010808426,0.047094729
0.707,-0.010808426,-0.306115737
0.7072,-0.010808426,-0.306115737
0.7074,-0.010808426,-0.306115737
0.7076,-0.010808426,-0.306115737
0.7078,-0.010808426,-0.306115737
0.708,-0.04539539,-0.306115737
0.7082,-0.010808426,0.047094729
0.7084,-0.010808426,-0.306115737
0.7086,-0.04539539,-0.306115737
0.7088,-0.010808426,-0.306115737
0.709,-0.010808426,-0.306115737
0.7092,-0.010808426,-0.306115737
0.7094,-0.010808426,-0.306115737
0.7096,-0.010808426,-0.306115737
0.7098,0.023778538,-0.306115737
0.71,0.023778538,-0.306115737
0.7102,-0.010808426,-0.306115737
0.7104,-0.010808426,-0.306115737
0.7106,0.023778538,-0.306115737
0.7108,0.023778538,-0.306115737
0.711,-0.010808426,0.047094729
0.7112,0.023778538,-0.306115737
0.7114,0.023778538,-0.306115737
0.7116,-0.010808426,0.047094729
0.7118,-0.010808426,-0.306115737
0.712,0.023778538,-0.306115737
0.7122,-0.010808426,-0.306115737
0.7124,0.023778538,-0.306115737
0.7126,-0.010808426,-0.306115737
0.7128,0.023778538,0.047094729
0.713,0.023778538,-0.306115737
0.7132,0.023778538,-0.306115737
0.7134,-0.010808426,0.047094729
0.7136,0.023778538,-0.306115737
0.7138,0.023778538,-0.306115737
0.714,0.058365502,-0.306115737
0.7142,0.092952466,-0.306115737
0.7144,0.058365502,-0.306115737
0.7146,0.058365502,-0.306115737
0.7148,0.058365502,-0.306115737
0.715,0.058365502,-0.306115737
0.7152,0.058365502,-0.306115737
0.7154,0.058365502,-0.306115737
0.7156,0.023778538,-0.306115737
0.7158,0.023778538,-0.306115737
0.716,0.058365502,-0.306115737
0.7162,0.058365502,-0.306115737
0.7164,0.023778538,0.047094729
0.7166,0.058365502,-0.306115737
0.7168,0.058365502,-0.306115737
0.717,0.058365502,-0.306115737
0.7172,0.023778538,-0.306115737
0.7174,0.023778538,-0.306115737
0.7176,0.023778538,0.047094729
0.7178,0.023778538,0.047094729
0.718,-0.010808426,-0.306115737
0.7182,0.023778538,-0.306115737
0.7184,0.058365502,-0.306115737
0.7186,-0.010808426,-0.306115737
0.7188,-0.010808426,-0.306115737
0.719,-0.010808426,-0.306115737
0.7192,0.023778538,-0.306115737
0.7194,0.023778538,-0.306115737
0.7196,0.023778538,-0.306115737
0.7198,-0.04539539,0.047094729
0.72,-0.010808426,-0.306115737
0.7202,-0.010808426,-0.306115737
0.7204,-0.04539539,-0.306115737
0.7206,-0.010808426,-0.306115737
0.7208,0.023778538,-0.306115737
0.721,-0.010808426,0.047094729
0.7212,-0.010808426,0.047094729
0.7214,-0.010808426,-0.306115737
0.7216,-0.04539539,-0.306115737
0.7218,-0.04539539,0.047094729
0.722,-0.077820669,-0.306115737
0.7222,-0.04539539,-0.306115737
0.7224,-0.04539539,0.047094729
0.7226,-0.077820669,-0.306115737
0.7228,-0.077820669,-0.306115737
0.723,-0.04539539,-0.306115737
0.7232,-0.077820669,-0.306115737
0.7234,-0.077820669,0.047094729
0.7236,-0.077820669,-0.306115737
0.7238,-0.077820669,-0.306115737
0.724,-0.077820669,-0.306115737
0.7242,-0.077820669,-0.306115737
0.7244,-0.077820669,-0.306115737
0.7246,-0.077820669,0.047094729
0.7248,-0.077820669,-0.306115737
0.725,-0.077820669,-0.306115737
0.7252,-0.077820669,0.047094729
0.7254,-0.077820669,0.047094729
0.7256,-0.077820669,-0.306115737
0.7258,-0.077820669,0.047094729
0.726,-0.077820669,0.047094729
0.7262,-0.077820669,-0.306115737
0.7264,-0.077820669,0.047094729
0.7266,-0.077820669,0.047094729
0.7268,-0.077820669,-0.306115737
0.727,-0.077820669,-0.306115737
0.7272,-0.04539539,-0.306115737
0.7274,-0.077820669,-0.306115737
0.7276,-0.077820669,-0.306115737
0.7278,-0.04539539,-0.306115737
0.728,-0.077820669,-0.306115737
0.7282,-0.077820669,-0.306115737
0.7284,-0.04539539,-0.306115737
0.7286,-0.077820669,-0.306115737
0.7288,-0.077820669,0.047094729
0.729,-0.077820669,-0.306115737
0.7292,-0.077820669,-0.306115737
0.7294,-0.04539539,-0.306115737
0.7296,-0.04539539,-0.306115737
0.7298,-0.04539539,-0.306115737
0.73,-0.077820669,-0.306115737
0.7302,-0.04539539,0.047094729
0.7304,-0.04539539,-0.306115737
0.7306,-0.04539539,-0.306115737
0.7308,-0.010808426,-0.306115737
0.731,-0.010808426,-0.306115737
0.7312,-0.04539539,-0.306115737
0.7314,-0.010808426,-0.306115737
0.7316,-0.010808426,-0.306115737
0.7318,-0.010808426,-0.306115737
0.732,-0.010808426,0.047094729
0.7322,-0.010808426,-0.306115737
0.7324,-0.010808426,-0.306115737
0.7326,0.058365502,-0.306115737
0.7328,0.023778538,-0.306115737
0.733,0.023778538,0.047094729
0.7332,0.023778538,-0.306115737
0.7334,0.023778538,-0.306115737
0.7336,0.023778538,0.047094729
0.7338,0.023778538,-0.306115737
0.734,0.023778538,-0.306115737
0.7342,0.058365502,-0.306115737
0.7344,0.023778538,-0.306115737
0.7346,0.058365502,-0.306115737
0.7348,0.058365502,0.047094729
0.735,0.058365502,-0.306115737
0.7352,0.058365502,-0.306115737
0.7354,0.092952466,0.047094729
0.7356,0.092952466,0.047094729
0.7358,0.092952466,-0.306115737
0.736,0.092952466,-0.306115737
0.7362,0.092952466,0.047094729
0.7364,0.058365502,-0.306115737
0.7366,0.058365502,0.047094729
0.7368,0.058365502,-0.306115737
0.737,0.058365502,0.047094729
0.7372,0.058365502,-0.306115737
0.7374,0.058365502,0.047094729
0.7376,0.058365502,0.047094729
0.7378,0.092952466,-0.306115737
0.738,0.058365502,-0.306115737
0.7382,0.058365502,0.047094729
0.7384,0.058365502,0.047094729
0.7386,0.058365502,-0.306115737
0.7388,0.058365502,-0.306115737
0.739,0.058365502,0.047094729
0.7392,0.092952466,-0.306115737
0.7394,0.092952466,-0.306115737
0.7396,0.092952466,0.047094729
0.7398,0.058365502,-0.306115737
0.74,0.058365502,-0.306115737
0.7402,0.058365502,-0.306115737
0.7404,0.058365502,-0.306115737
0.7406,0.023778538,0.047094729
0.7408,0.058365502,-0.306115737
0.741,-0.010808426,-0.306115737
0.7412,0.023778538,-0.306115737
0.7414,0.023778538,-0.306115737
0.7416,0.023778538,-0.306115737
0.7418,-0.010808426,0.047094729
0.742,-0.010808426,-0.306115737
0.7422,0.023778538,-0.306115737
0.7424,-0.010808426,-0.306115737
0.7426,-0.010808426,-0.306115737
0.7428,-0.010808426,-0.306115737
0.743,-0.04539539,0.047094729
0.7432,-0.010808426,0.047094729
0.7434,-0.010808426,-0.306115737
0.7436,-0.04539539,0.047094729
0.7438,-0.010808426,-0.306115737
0.744,-0.010808426,-0.306115737
0.7442,-0.010808426,0.047094729
0.7444,-0.010808426,0.047094729
0.7446,-0.010808426,-0.306115737
0.7448,-0.04539539,0.047094729
0.745,-0.010808426,-0.306115737
0.7452,-0.04539539,-0.306115737
0.7454,-0.04539539,0.047094729
0.7456,-0.04539539,-0.306115737
0.7458,-0.04539539,-0.306115737
0.746,-0.04539539,-0.306115737
0.7462,-0.04539539,-0.306115737
0.7464,-0.04539539,-0.306115737
0.7466,-0.04539539,0.047094729
0.7468,-0.010808426,-0.306115737
0.747,-0.010808426,-0.306115737
0.7472,-0.04539539,0.047094729
0.7474,-0.04539539,-0.306115737
0.7476,-0.04539539,-0.306115737
0.7478,-0.04539539,0.047094729
0.748,-0.010808426,-0.306115737
0.7482,-0.04539539,-0.306115737
0.7484,-0.04539539,0.047094729
0.7486,-0.04539539,-0.306115737
0.7488,-0.04539539,-0.306115737
0.749,-0.04539539,-0.306115737
0.7492,-0.010808426,-0.306115737
0.7494,-0.04539539,-0.306115737
0.7496,-0.04539539,-0.306115737
0.7498,-0.04539539,-0.306115737
0.75,-0.04539539,-0.306115737
0.7502,-0.04539539,-0.306115737
0.7504,-0.04539539,0.047094729
0.7506,-0.04539539,0.047094729
0.7508,-0.04539539,-0.306115737
0.751,-0.04539539,-0.306115737
0.7512,-0.077820669,-0.306115737
0.7514,-0.04539539,0.047094729
0.7516,-0.04539539,0.047094729
0.7518,-0.04539539,0.047094729
0.752,-0.04539539,-0.306115737
0.7522,-0.04539539,-0.306115737
0.7524,-0.04539539,-0.306115737
0.7526,-0.04539539,0.047094729
0.7528,-0.04539539,-0.306115737
0.753,-0.04539539,-0.306115737
0.7532,-0.04539539,0.047094729
0.7534,-0.010808426,-0.306115737
0.7536,-0.04539539,0.047094729
0.7538,-0.010808426,-0.306115737
0.754,-0.04539539,-0.306115737
0.7542,-0.04539539,-0.306115737
0.7544,-0.010808426,-0.306115737
0.7546,-0.010808426,-0.306115737
0.7548,-0.04539539,-0.306115737
0.755,-0.010808426,-0.306115737
0.7552,-0.010808426,-0.306115737
0.7554,-0.04539539,0.047094729
0.7556,-0.010808426,-0.306115737
0.7558,-0.010808426,-0.306115737
0.756,-0.04539539,-0.306115737
0.7562,-0.010808426,-0.306115737
0.7564,-0.04539539,-0.306115737
0.7566,-0.04539539,-0.306115737
0.7568,-0.010808426,0.047094729
0.757,-0.010808426,-0.306115737
0.7572,-0.04539539,0.047094729
0.7574,-0.010808426,0.047094729
0.7576,-0.010808426,-0.306115737
0.7578,-0.010808426,0.047094729
0.758,-0.04539539,0.047094729
0.7582,-0.010808426,-0.306115737
0.7584,-0.04539539,0.047094729
0.7586,-0.010808426,-0.306115737
0.7588,-0.010808426,-0.306115737
0.759,-0.010808426,0.047094729
0.7592,-0.010808426,-0.306115737
0.7594,-0.010808426,-0.306115737
0.7596,-0.04539539,-0.306115737
0.7598,-0.010808426,-0.306115737
0.76,-0.010808426,-0.306115737
0.7602,-0.010808426,0.047094729
0.7604,-0.010808426,-0.306115737
0.7606,-0.010808426,-0.306115737
0.7608,-0.04539539,0.047094729
0.761,-0.010808426,-0.306115737
0.7612,0.023778538,-0.306115737
0.7614,-0.010808426,0.047094729
0.7616,-0.010808426,-0.306115737
0.7618,-0.010808426,-0.306115737
0.762,-0.04539539,0.047094729
0.7622,-0.04539539,-0.306115737
0.7624,-0.04539539,-0.306115737
0.7626,-0.04539539,0.047094729
0.7628,-0.010808426,-0.306115737
0.763,-0.04539539,-0.306115737
0.7632,-0.04539539,0.047094729
0.7634,-0.04539539,-0.306115737
0.7636,-0.04539539,-0.306115737
0.7638,-0.04539539,0.047094729
0.764,-0.010808426,-0.306115737
0.7642,-0.04539539,-0.306115737
0.7644,-0.04539539,0.047094729
0.7646,-0.010808426,-0.306115737
0.7648,-0.04539539,-0.306115737
0.765,-0.04539539,0.047094729
0.7652,-0.04539539,-0.306115737
0.7654,-0.04539539,-0.306115737
0.7656,-0.04539539,0.047094729
0.7658,-0.010808426,-0.306115737
0.766,-0.010808426,-0.306115737
0.7662,-0.010808426,-0.306115737
0.7664,-0.010808426,-0.306115737
0.7666,-0.010808426,-0.306115737
0.7668,-0.010808426,-0.306115737
0.767,-0.010808426,-0.306115737
0.7672,-0.010808426,-0.306115737
0.7674,-0.04539539,0.047094729
0.7676,-0.010808426,-0.306115737
0.7678,-0.010808426,-0.306115737
0.768,0.023778538,-0.306115737
0.7682,0.023778538,-0.306115737
0.7684,0.023778538,0.047094729
0.7686,0.023778538,0.047094729
0.7688,0.023778538,-0.306115737
0.769,-0.010808426,0.047094729
0.7692,0.023778538,0.047094729
0.7694,0.023778538,0.047094729
0.7696,0.023778538,-0.306115737
0.7698,-0.010808426,-0.306115737
0.77,0.023778538,-0.306115737
0.7702,-0.010808426,-0.306115737
0.7704,0.058365502,0.047094729
0.7706,0.058365502,-0.306115737
0.7708,0.023778538,-0.306115737
0.771,0.092952466,-0.306115737
0.7712,0.058365502,0.047094729
0.7714,0.058365502,-0.306115737
0.7716,0.058365502,-0.306115737
0.7718,0.058365502,0.047094729
0.772,0.058365502,0.047094729
0.7722,0.058365502,-0.306115737
0.7724,0.058365502,-0.306115737
0.7726,0.058365502,-0.306115737
0.7728,0.092952466,0.047094729
0.773,0.058365502,-0.306115737
0.7732,0.058365502,0.047094729
0.7734,0.092952466,0.047094729
0.7736,0.058365502,-0.306115737
0.7738,0.058365502,0.047094729
0.774,0.058365502,-0.306115737
0.7742,0.058365502,-0.306115737
0.7744,0.023778538,-0.306115737
0.7746,0.058365502,0.047094729
0.7748,0.058365502,-0.306115737
0.775,0.058365502,-0.306115737
0.7752,0.058365502,-0.306115737
0.7754,0.058365502,-0.306115737
0.7756,0.023778538,-0.306115737
0.7758,0.058365502,0.047094729
0.776,0.058365502,-0.306115737
0.7762,0.023778538,-0.306115737
0.7764,0.058365502,-0.306115737
0.7766,0.023778538,-0.306115737
0.7768,-0.010808426,-0.306115737
0.777,0.058365502,-0.306115737
0.7772,0.023778538,-0.306115737
0.7774,-0.010808426,-0.306115737
0.7776,0.023778538,-0.306115737
0.7778,-0.010808426,-0.306115737
0.778,-0.010808426,0.047094729
0.7782,-0.010808426,-0.306115737
0.7784,-0.04539539,-0.306115737
0.7786,-0.04539539,0.047094729
0.7788,-0.010808426,-0.306115737
0.779,-0.04539539,-0.306115737
0.7792,-0.04539539,-0.306115737
0.7794,-0.010808426,0.047094729
0.7796,-0.010808426,-0.306115737
0.7798,-0.04539539,-0.306115737
0.78,-0.010808426,-0.306115737
0.7802,-0.010808426,-0.306115737
0.7804,-0.04539539,-0.306115737
0.7806,-0.010808426,0.047094729
0.7808,-0.04539539,-0.306115737
0.781,-0.04539539,0.047094729
0.7812,-0.010808426,-0.306115737
0.7814,-0.04539539,-0.306115737
0.7816,-0.04539539,0.047094729
0.7818,-0.04539539,-0.306115737
0.782,-0.077820669,-0.306115737
0.7822,-0.04539539,0.047094729
0.7824,-0.04539539,-0.306115737
0.7826,-0.04539539,-0.306115737
0.7828,-0.04539539,-0.306115737
0.783,-0.04539539,0.047094729
0.7832,-0.077820669,-0.306115737
0.7834,-0.04539539,0.047094729
0.7836,-0.077820669,0.047094729
0.7838,-0.077820669,-0.306115737
0.784,-0.04539539,0.047094729
0.7842,-0.04539539,-0.306115737
0.7844,-0.077820669,-0.306115737
0.7846,-0.04539539,-0.306115737
0.7848,-0.04539539,-0.306115737
0.785,-0.077820669,-0.306115737
0.7852,-0.04539539,-0.306115737
0.7854,-0.077820669,-0.306115737
0.7856,-0.077820669,0.047094729
0.7858,-0.04539539,-0.306115737
0.786,-0.04539539,-0.306115737
0.7862,-0.04539539,-0.306115737
0.7864,-0.04539539,0.047094729
0.7866,-0.04539539,-0.306115737
0.7868,-0.04539539,0.047094729
0.787,-0.04539539,0.047094729
0.7872,-0.077820669,-0.306115737
0.7874,-0.04539539,-0.306115737
0.7876,-0.04539539,0.047094729
0.7878,-0.04539539,-0.306115737
0.788,-0.04539539,0.047094729
0.7882,-0.010808426,0.047094729
0.7884,-0.04539539,0.047094729
0.7886,-0.04539539,-0.306115737
0.7888,-0.010808426,-0.306115737
0.789,-0.010808426,-0.306115737
0.7892,-0.010808426,-0.306115737
0.7894,-0.010808426,0.047094729
0.7896,-0.04539539,-0.306115737
0.7898,-0.04539539,-0.306115737
0.79,-0.010808426,0.047094729
0.7902,-0.010808426,0.047094729
0.7904,-0.04539539,0.047094729
0.7906,-0.010808426,-0.306115737
0.7908,-0.010808426,-0.306115737
0.791,-0.010808426,0.047094729
0.7912,-0.010808426,-0.306115737
0.7914,-0.010808426,-0.306115737
0.7916,-0.010808426,0.047094729
0.7918,0.023778538,0.047094729
0.792,-0.010808426,-0.306115737
0.7922,-0.010808426,0.047094729
0.7924,0.023778538,-0.306115737
0.7926,0.023778538,-0.306115737
0.7928,-0.010808426,0.047094729
0.793,0.023778538,0.047094729
0.7932,0.023778538,-0.306115737
0.7934,-0.010808426,-0.306115737
0.7936,-0.010808426,0.047094729
0.7938,0.023778538,-0.306115737
0.794,-0.010808426,0.047094729
0.7942,0.023778538,-0.306115737
0.7944,0.023778538,-0.306115737
0.7946,0.023778538,-0.306115737
0.7948,0.023778538,-0.306115737
0.795,0.023778538,-0.306115737
0.7952,0.023778538,0.047094729
0.7954,0.058365502,-0.306115737
0.7956,0.023778538,-0.306115737
0.7958,0.023778538,0.047094729
0.796,0.058365502,-0.306115737
0.7962,0.023778538,-0.306115737
0.7964,0.023778538,0.047094729
0.7966,0.023778538,0.047094729
0.7968,-0.010808426,-0.306115737
0.797,-0.010808426,0.047094729
0.7972,-0.010808426,0.047094729
0.7974,-0.010808426,-0.306115737
0.7976,-0.010808426,-0.306115737
0.7978,-0.010808426,0.047094729
0.798,0.023778538,-0.306115737
0.7982,-0.010808426,-0.306115737
0.7984,0.023778538,0.047094729
0.7986,0.023778538,-0.306115737
0.7988,-0.010808426,-0.306115737
0.799,0.058365502,0.047094729
0.7992,-0.010808426,-0.306115737
0.7994,-0.010808426,0.047094729
0.7996,-0.010808426,-0.306115737
0.7998,-0.010808426,-0.306115737
0.8,-0.010808426,-0.306115737
0.8002,0.058365502,-0.306115737
0.8004,-0.010808426,0.047094729
0.8006,-0.010808426,0.047094729
0.8008,0.023778538,-0.306115737
0.801,0.023778538,-0.306115737
0.8012,-0.010808426,-0.306115737
0.8014,0.023778538,-0.306115737
0.8016,-0.010808426,-0.306115737
0.8018,-0.010808426,-0.306115737
0.802,-0.010808426,-0.306115737
0.8022,-0.010808426,-0.306115737
0.8024,-0.010808426,-0.306115737
0.8026,-0.04539539,-0.306115737
0.8028,-0.04539539,-0.306115737
0.803,-0.010808426,0.047094729
0.8032,-0.010808426,-0.306115737
0.8034,-0.010808426,0.047094729
0.8036,-0.010808426,0.047094729
0.8038,-0.010808426,-0.306115737
0.804,-0.010808426,0.047094729
0.8042,-0.010808426,-0.306115737
0.8044,-0.010808426,-0.306115737
0.8046,-0.04539539,0.047094729
0.8048,-0.010808426,-0.306115737
0.805,-0.010808426,-0.306115737
0.8052,-0.010808426,-0.306115737
0.8054,-0.010808426,-0.306115737
0.8056,-0.010808426,-0.306115737
0.8058,-0.010808426,-0.306115737
0.806,-0.010808426,-0.306115737
0.8062,-0.010808426,-0.306115737
0.8064,-0.010808426,0.047094729
0.8066,-0.010808426,-0.306115737
0.8068,0.023778538,-0.306115737
0.807,-0.010808426,0.047094729
0.8072,0.023778538,-0.306115737
0.8074,-0.010808426,-0.306115737
0.8076,-0.010808426,-0.306115737
0.8078,-0.010808426,-0.306115737
0.808,-0.010808426,-0.306115737
0.8082,-0.010808426,-0.306115737
0.8084,0.023778538,-0.306115737
0.8086,-0.010808426,-0.306115737
0.8088,-0.010808426,-0.306115737
0.809,-0.010808426,-0.306115737
0.8092,0.023778538,-0.306115737
0.8094,-0.010808426,0.047094729
0.8096,-0.010808426,0.047094729
0.8098,-0.010808426,-0.306115737
0.81,-0.010808426,-0.306115737
0.8102,-0.010808426,-0.306115737
0.8104,-0.010808426,-0.306115737
0.8106,-0.04539539,-0.306115737
0.8108,-0.04539539,-0.306115737
0.811,-0.04539539,-0.306115737
0.8112,-0.04539539,-0.306115737
0.8114,-0.010808426,-0.306115737
0.8116,-0.010808426,-0.306115737
0.8118,-0.010808426,0.047094729
0.812,0.023778538,-0.306115737
0.8122,-0.010808426,0.047094729
0.8124,-0.010808426,0.047094729
0.8126,-0.04539539,-0.306115737
0.8128,-0.04539539,-0.306115737
0.813,0.023778538,0.047094729
0.8132,0.023778538,-0.306115737
0.8134,-0.010808426,0.047094729
0.8136,-0.010808426,-0.306115737
0.8138,-0.010808426,-0.306115737
0.814,-0.010808426,-0.306115737
0.8142,0.023778538,0.047094729
0.8144,0.023778538,0.047094729
0.8146,-0.010808426,-0.306115737
0.8148,-0.010808426,-0.306115737
0.815,0.023778538,0.047094729
0.8152,-0.010808426,-0.306115737
0.8154,-0.010808426,-0.306115737
0.8156,0.023778538,-0.306115737
0.8158,-0.010808426,-0.306115737
0.816,-0.010808426,-0.306115737
0.8162,-0.010808426,-0.306115737
0.8164,-0.010808426,-0.306115737
0.8166,-0.010808426,-0.306115737
0.8168,-0.010808426,-0.306115737
0.817,-0.010808426,0.047094729
0.8172,-0.010808426,0.047094729
0.8174,-0.010808426,-0.306115737
0.8176,-0.04539539,0.047094729
0.8178,-0.010808426,0.047094729
0.818,-0.010808426,-0.306115737
0.8182,-0.04539539,-0.306115737
0.8184,-0.010808426,0.047094729
0.8186,0.023778538,-0.306115737
0.8188,-0.010808426,-0.306115737
0.819,-0.010808426,0.047094729
0.8192,-0.010808426,0.047094729
0.8194,-0.04539539,-0.306115737
0.8196,-0.010808426,-0.306115737
0.8198,-0.010808426,-0.306115737
0.82,-0.010808426,-0.306115737
0.8202,-0.010808426,-0.306115737
0.8204,-0.04539539,-0.306115737
0.8206,-0.04539539,0.047094729
0.8208,-0.010808426,-0.306115737
0.821,-0.04539539,-0.306115737
0.8212,-0.04539539,0.047094729
0.8214,-0.010808426,-0.306115737
0.8216,-0.04539539,-0.306115737
0.8218,-0.04539539,-0.306115737
0.822,-0.010808426,-0.306115737
0.8222,-0.04539539,-0.306115737
0.8224,-0.04539539,0.047094729
0.8226,-0.04539539,0.047094729
0.8228,-0.04539539,-0.306115737
0.823,-0.04539539,0.047094729
0.8232,-0.04539539,-0.306115737
0.8234,-0.04539539,-0.306115737
0.8236,-0.04539539,0.047094729
0.8238,-0.04539539,-0.306115737
0.824,-0.04539539,-0.306115737
0.8242,-0.010808426,0.047094729
0.8244,-0.010808426,0.047094729
0.8246,-0.04539539,-0.306115737
0.8248,-0.04539539,-0.306115737
0.825,-0.04539539,0.047094729
0.8252,-0.04539539,-0.306115737
0.8254,-0.010808426,0.047094729
0.8256,-0.04539539,0.047094729
0.8258,-0.04539539,-0.306115737
0.826,-0.04539539,-0.306115737
0.8262,-0.010808426,-0.306115737
0.8264,-0.010808426,-0.306115737
0.8266,-0.010808426,0.047094729
0.8268,-0.010808426,-0.306115737
0.827,-0.010808426,-0.306115737
0.8272,-0.04539539,0.047094729
0.8274,-0.04539539,-0.306115737
0.8276,-0.010808426,-0.306115737
0.8278,-0.010808426,0.047094729
0.828,-0.04539539,0.047094729
0.8282,-0.010808426,-0.306115737
0.8284,-0.010808426,-0.306115737
0.8286,-0.010808426,-0.306115737
0.8288,-0.010808426,-0.306115737
0.829,-0.010808426,-0.306115737
0.8292,-0.010808426,-0.306115737
0.8294,-0.010808426,-0.306115737
0.8296,-0.010808426,0.047094729
0.8298,0.023778538,-0.306115737
0.83,0.023778538,-0.306115737
0.8302,-0.010808426,0.047094729
0.8304,0.023778538,-0.306115737
0.8306,-0.010808426,-0.306115737
0.8308,-0.010808426,-0.306115737
0.831,-0.010808426,-0.306115737
0.8312,0.023778538,0.047094729
0.8314,-0.010808426,0.047094729
0.8316,-0.010808426,0.047094729
0.8318,-0.010808426,-0.306115737
0.832,0.058365502,-0.306115737
0.8322,0.023778538,-0.306115737
0.8324,0.023778538,0.047094729
0.8326,0.023778538,-0.306115737
0.8328,-0.010808426,-0.306115737
0.833,0.023778538,-0.306115737
0.8332,0.023778538,-0.306115737
0.8334,0.023778538,-0.306115737
0.8336,-0.010808426,-0.306115737
0.8338,0.023778538,-0.306115737
0.834,0.023778538,-0.306115737
0.8342,-0.010808426,0.047094729
0.8344,-0.010808426,-0.306115737
0.8346,0.023778538,0.047094729
0.8348,-0.04539539,0.047094729
0.835,-0.010808426,0.047094729
0.8352,0.058365502,-0.306115737
0.8354,-0.010808426,-0.306115737
0.8356,-0.010808426,-0.306115737
0.8358,-0.010808426,-0.306115737
0.836,-0.010808426,-0.306115737
0.8362,-0.010808426,0.047094729
0.8364,-0.04539539,-0.306115737
0.8366,-0.04539539,0.047094729
0.8368,-0.010808426,-0.306115737
0.837,-0.010808426,-0.306115737
0.8372,-0.010808426,-0.306115737
0.8374,0.023778538,-0.306115737
0.8376,-0.010808426,0.047094729
0.8378,-0.010808426,-0.306115737
0.838,-0.010808426,0.047094729
0.8382,-0.010808426,-0.306115737
0.8384,-0.010808426,0.047094729
0.8386,-0.010808426,-0.306115737
0.8388,-0.010808426,0.047094729
0.839,-0.04539539,-0.306115737
0.8392,-0.010808426,-0.306115737
0.8394,-0.010808426,-0.306115737
0.8396,-0.04539539,-0.306115737
0.8398,-0.010808426,0.047094729
0.84,0.023778538,-0.306115737
0.8402,-0.04539539,-0.306115737
0.8404,-0.010808426,0.047094729
0.8406,-0.010808426,-0.306115737
0.8408,-0.010808426,-0.306115737
0.841,-0.010808426,-0.306115737
0.8412,-0.04539539,-0.306115737
0.8414,-0.04539539,-0.306115737
0.8416,-0.04539539,0.047094729
0.8418,-0.04539539,-0.306115737
0.842,-0.04539539,-0.306115737
0.8422,-0.010808426,-0.306115737
0.8424,-0.010808426,-0.306115737
0.8426,-0.04539539,-0.306115737
0.8428,-0.010808426,-0.306115737
0.843,-0.010808426,-0.306115737
0.8432,-0.010808426,0.047094729
0.8434,-0.010808426,-0.306115737
0.8436,-0.010808426,-0.306115737
0.8438,-0.010808426,-0.306115737
0.844,-0.010808426,-0.306115737
0.8442,-0.010808426,-0.306115737
0.8444,-0.04539539,0.047094729
0.8446,-0.010808426,-0.306115737
0.8448,-0.04539539,-0.306115737
0.845,-0.010808426,-0.306115737
0.8452,0.058365502,-0.306115737
0.8454,-0.010808426,-0.306115737
0.8456,-0.010808426,-0.306115737
0.8458,-0.010808426,-0.306115737
0.846,-0.04539539,-0.306115737
0.8462,-0.010808426,-0.306115737
0.8464,-0.010808426,0.047094729
0.8466,-0.010808426,0.047094729
0.8468,-0.010808426,-0.306115737
0.847,-0.010808426,-0.306115737
0.8472,-0.010808426,-0.306115737
0.8474,-0.010808426,-0.306115737
0.8476,-0.010808426,-0.306115737
0.8478,-0.010808426,0.047094729
0.848,-0.010808426,-0.306115737
0.8482,0.023778538,-0.306115737
0.8484,-0.010808426,0.047094729
0.8486,0.023778538,-0.306115737
0.8488,-0.010808426,-0.306115737
0.849,-0.010808426,-0.306115737
0.8492,-0.010808426,0.047094729
0.8494,-0.010808426,-0.306115737
0.8496,-0.010808426,-0.306115737
0.8498,-0.010808426,0.047094729
0.85,0.023778538,-0.306115737
0.8502,-0.010808426,-0.306115737
0.8504,-0.010808426,0.047094729
0.8506,0.023778538,-0.306115737
0.8508,-0.04539539,0.047094729
0.851,-0.010808426,-0.306115737
0.8512,-0.010808426,-0.306115737
0.8514,-0.04539539,-0.306115737
0.8516,-0.010808426,-0.306115737
0.8518,-0.010808426,-0.306115737
0.852,-0.010808426,0.047094729
0.8522,-0.010808426,0.047094729
0.8524,-0.010808426,-0.306115737
0.8526,-0.04539539,-0.306115737
0.8528,-0.010808426,0.047094729
0.853,-0.010808426,-0.306115737
0.8532,-0.04539539,0.047094729
0.8534,0.058365502,0.047094729
0.8536,-0.010808426,-0.306115737
0.8538,-0.010808426,-0.306115737
0.854,-0.010808426,-0.306115737
0.8542,-0.010808426,-0.306115737
0.8544,-0.010808426,0.047094729
0.8546,-0.010808426,-0.306115737
0.8548,-0.010808426,-0.306115737
0.855,-0.010808426,0.047094729
0.8552,0.023778538,-0.306115737
0.8554,-0.010808426,0.047094729
0.8556,-0.010808426,-0.306115737
0.8558,-0.010808426,-0.306115737
0.856,-0.010808426,0.047094729
0.8562,-0.04539539,0.047094729
0.8564,-0.010808426,-0.306115737
0.8566,-0.04539539,-0.306115737
0.8568,-0.04539539,0.047094729
0.857,-0.010808426,-0.306115737
0.8572,-0.04539539,-0.306115737
0.8574,-0.010808426,0.047094729
0.8576,-0.010808426,0.047094729
0.8578,-0.010808426,-0.306115737
0.858,-0.04539539,0.047094729
0.8582,-0.010808426,-0.306115737
0.8584,-0.04539539,-0.306115737
0.8586,-0.010808426,-0.306115737
0.8588,-0.010808426,-0.306115737
0.859,-0.04539539,-0.306115737
0.8592,-0.04539539,-0.306115737
0.8594,-0.04539539,-0.306115737
0.8596,-0.04539539,-0.306115737
0.8598,-0.04539539,-0.306115737
0.86,-0.04539539,-0.306115737
0.8602,-0.04539539,-0.306115737
0.8604,-0.010808426,-0.306115737
0.8606,-0.04539539,-0.306115737
0.8608,-0.04539539,-0.306115737
0.861,-0.04539539,-0.306115737
0.8612,-0.04539539,-0.306115737
0.8614,-0.04539539,0.047094729
0.8616,-0.04539539,0.047094729
0.8618,-0.04539539,-0.306115737
0.862,-0.04539539,-0.306115737
0.8622,-0.010808426,0.047094729
0.8624,-0.04539539,-0.306115737
0.8626,-0.04539539,-0.306115737
0.8628,-0.04539539,0.047094729
0.863,-0.04539539,-0.306115737
0.8632,-0.04539539,-0.306115737
0.8634,-0.04539539,-0.306115737
0.8636,-0.04539539,-0.306115737
0.8638,-0.04539539,-0.306115737
0.864,-0.010808426,-0.306115737
0.8642,-0.010808426,-0.306115737
0.8644,-0.04539539,-0.306115737
0.8646,-0.04539539,-0.306115737
0.8648,-0.010808426,0.047094729
0.865,-0.04539539,0.047094729
0.8652,-0.010808426,-0.306115737
0.8654,-0.010808426,-0.306115737
0.8656,-0.04539539,0.047094729
0.8658,-0.010808426,-0.306115737
0.866,-0.010808426,-0.306115737
0.8662,-0.010808426,0.047094729
0.8664,-0.04539539,-0.306115737
0.8666,-0.04539539,-0.306115737
0.8668,-0.04539539,0.047094729
0.867,-0.010808426,0.047094729
0.8672,-0.010808426,-0.306115737
0.8674,-0.04539539,0.047094729
0.8676,-0.04539539,-0.306115737
0.8678,-0.010808426,-0.306115737
0.868,-0.04539539,-0.306115737
0.8682,-0.010808426,-0.306115737
0.8684,-0.010808426,0.047094729
0.8686,-0.010808426,0.047094729
0.8688,-0.010808426,-0.306115737
0.869,-0.010808426,-0.306115737
0.8692,-0.010808426,-0.306115737
0.8694,-0.010808426,-0.306115737
0.8696,-0.010808426,-0.306115737
0.8698,0.023778538,0.047094729
0.87,0.023778538,-0.306115737
0.8702,-0.010808426,-0.306115737
0.8704,-0.010808426,0.047094729
0.8706,0.023778538,0.047094729
0.8708,0.023778538,-0.306115737
0.871,-0.010808426,0.047094729
0.8712,-0.010808426,0.047094729
0.8714,0.023778538,0.047094729
0.8716,0.023778538,0.047094729
0.8718,0.058365502,0.047094729
0.872,0.023778538,-0.306115737
0.8722,0.023778538,-0.306115737
0.8724,0.023778538,0.047094729
0.8726,-0.010808426,-0.306115737
0.8728,0.023778538,-0.306115737
0.873,0.023778538,0.047094729
0.8732,-0.010808426,-0.306115737
0.8734,-0.010808426,0.047094729
0.8736,0.023778538,-0.306115737
0.8738,0.023778538,-0.306115737
0.874,-0.010808426,0.047094729
0.8742,0.023778538,-0.306115737
0.8744,-0.010808426,-0.306115737
0.8746,-0.010808426,0.047094729
0.8748,-0.010808426,-0.306115737
0.875,0.023778538,-0.306115737
0.8752,0.058365502,0.047094729
0.8754,0.058365502,-0.306115737
0.8756,-0.010808426,-0.306115737
0.8758,-0.010808426,0.047094729
0.876,-0.010808426,-0.306115737
0.8762,-0.010808426,-0.306115737
0.8764,-0.010808426,0.047094729
0.8766,0.023778538,0.047094729
0.8768,-0.04539539,-0.306115737
0.877,-0.010808426,-0.306115737
0.8772,-0.010808426,-0.306115737
0.8774,-0.04539539,0.047094729
0.8776,-0.010808426,-0.306115737
0.8778,-0.010808426,0.047094729
0.878,-0.04539539,0.047094729
0.8782,-0.010808426,0.047094729
0.8784,-0.010808426,-0.306115737
0.8786,-0.04539539,0.047094729
0.8788,-0.010808426,0.047094729
0.879,-0.04539539,-0.306115737
0.8792,-0.04539539,0.047094729
0.8794,-0.010808426,0.047094729
0.8796,-0.04539539,-0.306115737
0.8798,-0.04539539,0.047094729
0.88,-0.010808426,-0.306115737
0.8802,-0.010808426,0.047094729
0.8804,-0.04539539,-0.306115737
0.8806,-0.010808426,0.047094729
0.8808,-0.010808426,0.047094729
0.881,-0.04539539,-0.306115737
0.8812,-0.010808426,0.047094729
0.8814,-0.010808426,-0.306115737
0.8816,-0.04539539,0.047094729
0.8818,-0.010808426,-0.306115737
0.882,-0.04539539,-0.306115737
0.8822,-0.04539539,0.047094729
0.8824,-0.04539539,-0.306115737
0.8826,-0.04539539,-0.306115737
0.8828,-0.04539539,0.047094729
0.883,-0.010808426,-0.306115737
0.8832,-0.04539539,-0.306115737
0.8834,-0.04539539,0.047094729
0.8836,-0.010808426,0.047094729
0.8838,-0.04539539,-0.306115737
0.884,-0.04539539,0.047094729
0.8842,-0.04539539,-0.306115737
0.8844,-0.04539539,-0.306115737
0.8846,-0.04539539,0.047094729
0.8848,-0.04539539,0.047094729
0.885,-0.04539539,-0.306115737
0.8852,-0.04539539,-0.306115737
0.8854,-0.04539539,-0.306115737
0.8856,-0.04539539,0.047094729
0.8858,-0.04539539,0.047094729
0.886,-0.04539539,-0.306115737
0.8862,-0.04539539,-0.306115737
0.8864,-0.010808426,0.047094729
0.8866,-0.010808426,0.047094729
0.8868,-0.010808426,-0.306115737
0.887,-0.04539539,0.047094729
0.8872,-0.010808426,-0.306115737
0.8874,-0.04539539,-0.306115737
0.8876,-0.010808426,0.047094729
0.8878,-0.010808426,-0.306115737
0.888,-0.04539539,-0.306115737
0.8882,-0.010808426,-0.306115737
0.8884,-0.010808426,0.047094729
0.8886,-0.010808426,-0.306115737
0.8888,-0.010808426,0.047094729
0.889,-0.010808426,-0.306115737
0.8892,-0.010808426,-0.306115737
0.8894,-0.010808426,0.047094729
0.8896,-0.010808426,0.047094729
0.8898,-0.010808426,0.047094729
0.89,-0.010808426,-0.306115737
0.8902,-0.010808426,0.047094729
0.8904,-0.010808426,-0.306115737
0.8906,-0.010808426,-0.306115737
0.8908,-0.010808426,0.047094729
0.891,-0.010808426,0.047094729
0.8912,-0.010808426,0.047094729
0.8914,-0.010808426,-0.306115737
0.8916,-0.010808426,0.047094729
0.8918,-0.010808426,0.047094729
0.892,-0.04539539,-0.306115737
0.8922,-0.04539539,0.047094729
0.8924,-0.010808426,0.047094729
0.8926,-0.04539539,-0.306115737
0.8928,-0.04539539,0.047094729
0.893,-0.010808426,0.047094729
0.8932,-0.04539539,-0.306115737
0.8934,-0.04539539,-0.306115737
0.8936,-0.010808426,0.047094729
0.8938,0.023778538,-0.306115737
0.894,-0.010808426,-0.306115737
0.8942,0.023778538,0.047094729
0.8944,-0.010808426,-0.306115737
0.8946,-0.010808426,-0.306115737
0.8948,0.023778538,-0.306115737
0.895,-0.010808426,-0.306115737
0.8952,-0.04539539,0.047094729
0.8954,-0.010808426,-0.306115737
0.8956,-0.010808426,-0.306115737
0.8958,-0.04539539,-0.306115737
0.896,-0.010808426,-0.306115737
0.8962,-0.010808426,-0.306115737
0.8964,-0.010808426,0.047094729
0.8966,-0.010808426,0.047094729
0.8968,-0.04539539,-0.306115737
0.897,-0.04539539,0.047094729
0.8972,-0.010808426,0.047094729
0.8974,-0.04539539,-0.306115737
0.8976,-0.010808426,-0.306115737
0.8978,-0.010808426,0.047094729
0.898,-0.010808426,-0.306115737
0.8982,-0.04539539,-0.306115737
0.8984,-0.010808426,-0.306115737
0.8986,-0.010808426,-0.306115737
0.8988,-0.04539539,-0.306115737
0.899,-0.010808426,-0.306115737
0.8992,-0.04539539,-0.306115737
0.8994,-0.04539539,-0.306115737
0.8996,-0.010808426,-0.306115737
0.8998,-0.04539539,-0.306115737
0.9,-0.010808426,0.047094729
0.9002,-0.04539539,0.047094729
0.9004,-0.04539539,-0.306115737
0.9006,-0.010808426,0.047094729
0.9008,-0.010808426,-0.306115737
0.901,-0.04539539,-0.306115737
0.9012,-0.04539539,0.047094729
0.9014,-0.010808426,-0.306115737
0.9016,-0.010808426,-0.306115737
0.9018,-0.010808426,-0.306115737
0.902,-0.010808426,-0.306115737
0.9022,-0.04539539,-0.306115737
0.9024,-0.010808426,0.047094729
0.9026,-0.04539539,-0.306115737
0.9028,-0.04539539,-0.306115737
0.903,-0.04539539,-0.306115737
0.9032,-0.04539539,-0.306115737
0.9034,-0.04539539,0.047094729
0.9036,-0.010808426,-0.306115737
0.9038,-0.04539539,-0.306115737
0.904,-0.010808426,0.047094729
0.9042,-0.010808426,-0.306115737
0.9044,-0.010808426,0.047094729
0.9046,-0.010808426,0.047094729
0.9048,-0.010808426,0.047094729
0.905,-0.010808426,-0.306115737
0.9052,-0.010808426,-0.306115737
0.9054,-0.010808426,0.047094729
0.9056,0.023778538,-0.306115737
0.9058,0.023778538,0.047094729
0.906,0.023778538,0.047094729
0.9062,-0.010808426,-0.306115737
0.9064,-0.010808426,-0.306115737
0.9066,0.058365502,0.047094729
0.9068,0.023778538,-0.306115737
0.907,0.058365502,0.047094729
0.9072,0.023778538,0.047094729
0.9074,0.023778538,-0.306115737
0.9076,0.023778538,0.047094729
0.9078,0.023778538,-0.306115737
0.908,0.023778538,-0.306115737
0.9082,-0.010808426,-0.306115737
0.9084,0.058365502,-0.306115737
0.9086,0.058365502,-0.306115737
0.9088,0.023778538,-0.306115737
0.909,0.023778538,-0.306115737
0.9092,0.023778538,-0.306115737
0.9094,-0.010808426,0.047094729
0.9096,0.023778538,0.047094729
0.9098,0.023778538,-0.306115737
0.91,-0.010808426,0.047094729
0.9102,0.023778538,-0.306115737
0.9104,0.023778538,-0.306115737
0.9106,-0.010808426,0.047094729
0.9108,-0.010808426,0.047094729
0.911,0.023778538,-0.306115737
0.9112,0.023778538,-0.306115737
0.9114,0.023778538,0.047094729
0.9116,-0.010808426,-0.306115737
0.9118,0.023778538,-0.306115737
0.912,0.023778538,0.047094729
0.9122,0.023778538,0.047094729
0.9124,0.023778538,-0.306115737
0.9126,0.058365502,-0.306115737
0.9128,0.023778538,0.047094729
0.913,0.023778538,0.047094729
0.9132,-0.010808426,-0.306115737
0.9134,-0.010808426,0.047094729
0.9136,0.023778538,0.047094729
0.9138,0.023778538,-0.306115737
0.914,0.023778538,0.047094729
0.9142,-0.010808426,0.047094729
0.9144,-0.010808426,-0.306115737
0.9146,-0.010808426,0.047094729
0.9148,-0.010808426,0.047094729
0.915,-0.010808426,-0.306115737
0.9152,-0.010808426,0.047094729
0.9154,-0.010808426,0.047094729
0.9156,-0.010808426,-0.306115737
0.9158,-0.04539539,0.047094729
0.916,-0.010808426,-0.306115737
0.9162,-0.010808426,-0.306115737
0.9164,-0.04539539,0.047094729
0.9166,-0.04539539,0.047094729
0.9168,-0.04539539,-0.306115737
0.917,-0.04539539,0.047094729
0.9172,-0.010808426,-0.306115737
0.9174,-0.010808426,-0.306115737
0.9176,-0.04539539,0.047094729
0.9178,-0.04539539,-0.306115737
0.918,-0.04539539,-0.306115737
0.9182,-0.04539539,0.047094729
0.9184,-0.04539539,0.047094729
0.9186,-0.04539539,-0.306115737
0.9188,-0.077820669,-0.306115737
0.919,-0.04539539,0.047094729
0.9192,-0.04539539,-0.306115737
0.9194,-0.04539539,-0.306115737
0.9196,-0.04539539,0.047094729
0.9198,-0.077820669,-0.306115737
0.92,-0.04539539,-0.306115737
0.9202,-0.04539539,-0.306115737
0.9204,-0.04539539,-0.306115737
0.9206,-0.04539539,-0.306115737
0.9208,-0.04539539,-0.306115737
0.921,-0.04539539,-0.306115737
0.9212,-0.077820669,-0.306115737
0.9214,-0.04539539,-0.306115737
0.9216,-0.04539539,-0.306115737
0.9218,-0.04539539,0.047094729
0.922,-0.010808426,-0.306115737
0.9222,-0.04539539,-0.306115737
0.9224,-0.04539539,-0.306115737
0.9226,-0.04539539,0.047094729
0.9228,-0.04539539,-0.306115737
0.923,-0.04539539,0.047094729
0.9232,-0.04539539,-0.306115737
0.9234,-0.04539539,-0.306115737
0.9236,-0.010808426,-0.306115737
0.9238,-0.010808426,-0.306115737
0.924,-0.04539539,-0.306115737
0.9242,-0.010808426,-0.306115737
0.9244,-0.04539539,-0.306115737
0.9246,-0.010808426,0.047094729
0.9248,-0.010808426,-0.306115737
0.925,-0.010808426,-0.306115737
0.9252,-0.04539539,0.047094729
0.9254,-0.04539539,-0.306115737
0.9256,-0.010808426,-0.306115737
0.9258,-0.010808426,-0.306115737
0.926,-0.010808426,0.047094729
0.9262,-0.010808426,-0.306115737
0.9264,-0.04539539,0.047094729
0.9266,-0.010808426,0.047094729
0.9268,-0.010808426,-0.306115737
0.927,-0.04539539,-0.306115737
0.9272,-0.010808426,-0.306115737
0.9274,-0.010808426,-0.306115737
0.9276,-0.010808426,-0.306115737
0.9278,-0.010808426,0.047094729
0.928,-0.010808426,0.047094729
0.9282,0.023778538,0.047094729
0.9284,-0.010808426,0.047094729
0.9286,-0.010808426,0.047094729
0.9288,-0.04539539,0.047094729
0.929,-0.010808426,0.047094729
0.9292,-0.010808426,-0.306115737
0.9294,-0.010808426,0.047094729
0.9296,-0.010808426,-0.306115737
0.9298,0.023778538,-0.306115737
0.93,-0.010808426,0.047094729
0.9302,-0.010808426,-0.306115737
0.9304,-0.010808426,-0.306115737
0.9306,-0.010808426,-0.306115737
0.9308,0.023778538,0.047094729
0.931,0.023778538,-0.306115737
0.9312,0.023778538,0.047094729
0.9314,-0.010808426,-0.306115737
0.9316,0.023778538,-0.306115737
0.9318,-0.010808426,-0.306115737
0.932,-0.010808426,0.047094729
0.9322,0.023778538,0.047094729
0.9324,0.058365502,-0.306115737
0.9326,-0.010808426,0.047094729
0.9328,0.023778538,-0.306115737
0.933,0.023778538,-0.306115737
0.9332,0.023778538,-0.306115737
0.9334,-0.010808426,-0.306115737
0.9336,-0.010808426,-0.306115737
0.9338,0.023778538,-0.306115737
0.934,0.023778538,-0.306115737
0.9342,-0.010808426,0.047094729
0.9344,-0.010808426,-0.306115737
0.9346,-0.010808426,-0.306115737
0.9348,-0.010808426,-0.306115737
0.935,-0.010808426,-0.306115737
0.9352,-0.010808426,-0.306115737
0.9354,-0.010808426,0.047094729
0.9356,-0.010808426,0.047094729
0.9358,-0.010808426,-0.306115737
0.936,-0.010808426,0.047094729
0.9362,-0.010808426,-0.306115737
0.9364,-0.010808426,-0.306115737
0.9366,-0.010808426,-0.306115737
0.9368,-0.010808426,0.047094729
0.937,-0.010808426,0.047094729
0.9372,-0.010808426,-0.306115737
0.9374,0.023778538,-0.306115737
0.9376,-0.010808426,0.047094729
0.9378,-0.010808426,0.047094729
0.938,-0.010808426,-0.306115737
0.9382,-0.010808426,0.047094729
0.9384,-0.010808426,0.047094729
0.9386,-0.010808426,-0.306115737
0.9388,-0.04539539,0.047094729
0.939,-0.010808426,0.047094729
0.9392,-0.010808426,-0.306115737
0.9394,-0.04539539,0.047094729
0.9396,-0.010808426,-0.306115737
0.9398,-0.010808426,-0.306115737
0.94,-0.04539539,0.047094729
0.9402,-0.010808426,-0.306115737
0.9404,-0.010808426,-0.306115737
0.9406,-0.04539539,-0.306115737
0.9408,-0.010808426,0.047094729
0.941,-0.010808426,-0.306115737
0.9412,-0.010808426,-0.306115737
0.9414,-0.010808426,-0.306115737
0.9416,-0.010808426,-0.306115737
0.9418,-0.04539539,-0.306115737
0.942,-0.010808426,-0.306115737
0.9422,-0.010808426,-0.306115737
0.9424,-0.010808426,-0.306115737
0.9426,0.023778538,-0.306115737
0.9428,-0.010808426,-0.306115737
0.943,-0.010808426,0.047094729
0.9432,0.023778538,-0.306115737
0.9434,0.023778538,-0.306115737
0.9436,-0.04539539,0.047094729
0.9438,0.023778538,0.047094729
0.944,-0.010808426,-0.306115737
0.9442,-0.010808426,0.047094729
0.9444,0.023778538,0.047094729
0.9446,-0.010808426,-0.306115737
0.9448,-0.010808426,0.047094729
0.945,0.023778538,-0.306115737
0.9452,-0.010808426,0.047094729
0.9454,-0.010808426,-0.306115737
0.9456,-0.04539539,-0.306115737
0.9458,-0.010808426,-0.306115737
0.946,-0.010808426,0.047094729
0.9462,0.023778538,-0.306115737
0.9464,-0.010808426,0.047094729
0.9466,0.023778538,-0.306115737
0.9468,-0.010808426,-0.306115737
0.947,-0.010808426,-0.306115737
0.9472,-0.010808426,0.047094729
0.9474,-0.010808426,-0.306115737
0.9476,-0.010808426,0.047094729
0.9478,-0.010808426,0.047094729
0.948,-0.010808426,-0.306115737
0.9482,-0.010808426,0.047094729
0.9484,-0.010808426,0.047094729
0.9486,-0.010808426,-0.306115737
0.9488,-0.010808426,-0.306115737
0.949,-0.010808426,0.047094729
0.9492,-0.010808426,-0.306115737
0.9494,-0.010808426,0.047094729
0.9496,-0.010808426,-0.306115737
0.9498,-0.010808426,-0.306115737
0.95,-0.04539539,-0.306115737
0.9502,-0.010808426,-0.306115737
0.9504,-0.04539539,0.047094729
0.9506,-0.04539539,0.047094729
0.9508,-0.010808426,-0.306115737
0.951,-0.010808426,-0.306115737
0.9512,-0.04539539,0.047094729
0.9514,-0.04539539,0.047094729
0.9516,-0.04539539,-0.306115737
0.9518,-0.04539539,0.047094729
0.952,-0.04539539,0.047094729
0.9522,-0.04539539,0.047094729
0.9524,-0.04539539,0.047094729
0.9526,-0.010808426,0.047094729
0.9528,-0.04539539,-0.306115737
0.953,-0.04539539,0.047094729
0.9532,-0.04539539,0.047094729
0.9534,-0.04539539,-0.306115737
0.9536,-0.010808426,0.047094729
0.9538,-0.04539539,0.047094729
0.954,-0.04539539,-0.306115737
0.9542,-0.04539539,0.047094729
0.9544,-0.04539539,-0.306115737
0.9546,-0.04539539,-0.306115737
0.9548,-0.04539539,0.047094729
0.955,-0.04539539,-0.306115737
0.9552,-0.04539539,-0.306115737
0.9554,-0.010808426,0.047094729
0.9556,-0.010808426,-0.306115737
0.9558,-0.04539539,-0.306115737
0.956,-0.04539539,0.047094729
0.9562,-0.04539539,0.047094729
0.9564,-0.04539539,-0.306115737
0.9566,-0.04539539,-0.306115737
0.9568,-0.04539539,-0.306115737
0.957,-0.04539539,-0.306115737
0.9572,-0.04539539,0.047094729
0.9574,-0.04539539,0.047094729
0.9576,-0.04539539,0.047094729
0.9578,-0.010808426,-0.306115737
0.958,-0.010808426,0.047094729
0.9582,-0.04539539,-0.306115737
0.9584,-0.04539539,0.047094729
0.9586,-0.04539539,-0.306115737
0.9588,-0.04539539,0.047094729
0.959,-0.04539539,0.047094729
0.9592,-0.04539539,-0.306115737
0.9594,-0.04539539,0.047094729
0.9596,-0.010808426,0.047094729
0.9598,-0.04539539,-0.306115737
0.96,-0.04539539,0.047094729
0.9602,-0.04539539,0.047094729
0.9604,-0.04539539,-0.306115737
0.9606,-0.04539539,0.047094729
0.9608,-0.04539539,0.047094729
0.961,-0.04539539,-0.306115737
0.9612,-0.04539539,-0.306115737
0.9614,-0.010808426,0.047094729
0.9616,-0.010808426,0.047094729
0.9618,-0.04539539,0.047094729
0.962,-0.010808426,-0.306115737
0.9622,0.023778538,-0.306115737
0.9624,-0.04539539,0.047094729
0.9626,-0.010808426,0.047094729
0.9628,-0.010808426,-0.306115737
0.963,-0.010808426,0.047094729
0.9632,0.023778538,-0.306115737
0.9634,-0.010808426,-0.306115737
0.9636,-0.010808426,0.047094729
0.9638,0.058365502,-0.306115737
0.964,-0.010808426,-0.306115737
0.9642,0.023778538,0.047094729
0.9644,0.023778538,0.047094729
0.9646,-0.010808426,-0.306115737
0.9648,-0.010808426,0.047094729
0.965,0.023778538,-0.306115737
0.9652,0.023778538,-0.306115737
0.9654,0.023778538,0.047094729
0.9656,0.023778538,-0.306115737
0.9658,0.023778538,0.047094729
0.966,0.023778538,0.047094729
0.9662,0.058365502,-0.306115737
0.9664,0.023778538,-0.306115737
0.9666,0.023778538,-0.306115737
0.9668,0.023778538,-0.306115737
0.967,0.023778538,0.047094729
0.9672,0.023778538,-0.306115737
0.9674,0.023778538,-0.306115737
0.9676,0.023778538,0.047094729
0.9678,0.023778538,0.047094729
0.968,0.058365502,-0.306115737
0.9682,-0.010808426,0.047094729
0.9684,0.023778538,0.047094729
0.9686,0.023778538,-0.306115737
0.9688,-0.010808426,0.047094729
0.969,0.023778538,0.047094729
0.9692,0.023778538,-0.306115737
0.9694,-0.010808426,-0.306115737
0.9696,0.023778538,0.047094729
0.9698,0.023778538,-0.306115737
0.97,0.023778538,-0.306115737
0.9702,0.023778538,0.047094729
0.9704,-0.010808426,0.047094729
0.9706,-0.010808426,0.047094729
0.9708,-0.010808426,-0.306115737
0.971,-0.010808426,-0.306115737
0.9712,-0.010808426,0.047094729
0.9714,-0.010808426,-0.306115737
0.9716,0.023778538,0.047094729
0.9718,-0.010808426,0.047094729
0.972,-0.010808426,0.047094729
0.9722,-0.010808426,-0.306115737
0.9724,-0.010808426,-0.306115737
0.9726,-0.010808426,0.047094729
0.9728,-0.010808426,-0.306115737
0.973,-0.04539539,0.047094729
0.9732,-0.010808426,0.047094729
0.9734,-0.010808426,-0.306115737
0.9736,-0.010808426,-0.306115737
0.9738,-0.010808426,0.047094729
0.974,-0.010808426,-0.306115737
0.9742,-0.010808426,-0.306115737
0.9744,0.023778538,0.047094729
0.9746,-0.010808426,-0.306115737
0.9748,-0.04539539,-0.306115737
0.975,-0.04539539,-0.306115737
0.9752,-0.04539539,-0.306115737
0.9754,-0.04539539,-0.306115737
0.9756,-0.04539539,-0.306115737
0.9758,-0.04539539,-0.306115737
0.976,-0.04539539,0.047094729
0.9762,-0.04539539,-0.306115737
0.9764,-0.04539539,-0.306115737
0.9766,-0.04539539,0.047094729
0.9768,-0.010808426,-0.306115737
0.977,-0.04539539,-0.306115737
0.9772,-0.04539539,0.047094729
0.9774,-0.04539539,0.047094729
0.9776,-0.04539539,-0.306115737
0.9778,-0.04539539,-0.306115737
0.978,-0.010808426,0.047094729
0.9782,-0.04539539,0.047094729
0.9784,-0.04539539,-0.306115737
0.9786,-0.04539539,-0.306115737
0.9788,-0.04539539,-0.306115737
0.979,-0.010808426,0.047094729
0.9792,-0.010808426,0.047094729
0.9794,-0.04539539,0.047094729
0.9796,-0.010808426,-0.306115737
0.9798,-0.010808426,-0.306115737
0.98,-0.04539539,0.047094729
0.9802,-0.010808426,0.047094729
0.9804,-0.010808426,-0.306115737
0.9806,-0.04539539,0.047094729
0.9808,-0.010808426,0.047094729
0.981,-0.010808426,-0.306115737
0.9812,-0.04539539,0.047094729
0.9814,-0.010808426,-0.306115737
0.9816,-0.04539539,-0.306115737
0.9818,-0.04539539,0.047094729
0.982,-0.010808426,0.047094729
0.9822,-0.010808426,-0.306115737
0.9824,-0.010808426,-0.306115737
0.9826,-0.010808426,0.047094729
0.9828,-0.010808426,0.047094729
0.983,-0.010808426,-0.306115737
0.9832,-0.010808426,0.047094729
0.9834,-0.04539539,-0.306115737
0.9836,-0.04539539,0.047094729
0.9838,-0.010808426,-0.306115737
0.984,-0.010808426,-0.306115737
0.9842,-0.010808426,0.047094729
0.9844,-0.010808426,0.047094729
0.9846,-0.04539539,-0.306115737
0.9848,-0.04539539,0.047094729
0.985,-0.010808426,0.047094729
0.9852,-0.010808426,-0.306115737
0.9854,-0.010808426,0.047094729
0.9856,-0.010808426,0.047094729
0.9858,-0.010808426,-0.306115737
0.986,-0.010808426,0.047094729
0.9862,0.023778538,0.047094729
0.9864,-0.010808426,-0.306115737
0.9866,0.023778538,0.047094729
0.9868,-0.010808426,-0.306115737
0.987,-0.010808426,-0.306115737
0.9872,-0.010808426,-0.306115737
0.9874,-0.010808426,0.047094729
0.9876,0.023778538,-0.306115737
0.9878,0.023778538,0.047094729
0.988,0.023778538,-0.306115737
0.9882,-0.010808426,0.047094729
0.9884,-0.010808426,-0.306115737
0.9886,-0.010808426,-0.306115737
0.9888,-0.010808426,0.047094729
0.989,-0.010808426,0.047094729
0.9892,-0.010808426,-0.306115737
0.9894,-0.010808426,0.047094729
0.9896,-0.010808426,0.047094729
0.9898,-0.010808426,-0.306115737
0.99,-0.010808426,-0.306115737
0.9902,-0.010808426,0.047094729
0.9904,-0.010808426,-0.306115737
0.9906,-0.04539539,-0.306115737
0.9908,-0.010808426,0.047094729
0.991,0.023778538,-0.306115737
0.9912,-0.010808426,-0.306115737
0.9914,-0.010808426,0.047094729
0.9916,0.023778538,-0.306115737
0.9918,-0.010808426,-0.306115737
0.992,-0.010808426,0.047094729
0.9922,0.023778538,-0.306115737
0.9924,-0.010808426,0.047094729
0.9926,-0.010808426,-0.306115737
0.9928,0.023778538,-0.306115737
0.993,-0.010808426,0.047094729
0.9932,0.023778538,-0.306115737
0.9934,0.023778538,-0.306115737
0.9936,-0.04539539,0.047094729
0.9938,-0.010808426,-0.306115737
0.994,-0.010808426,-0.306115737
0.9942,-0.010808426,0.047094729
0.9944,-0.010808426,0.047094729
0.9946,-0.04539539,-0.306115737
0.9948,-0.04539539,0.047094729
0.995,-0.010808426,0.047094729
0.9952,-0.010808426,-0.306115737
0.9954,-0.010808426,-0.306115737
0.9956,-0.010808426,0.047094729
0.9958,-0.04539539,-0.306115737
0.996,-0.010808426,0.047094729
0.9962,-0.010808426,0.047094729
0.9964,-0.010808426,0.047094729
0.9966,-0.010808426,0.047094729
0.9968,-0.010808426,-0.306115737
0.997,-0.04539539,-0.306115737
0.9972,-0.010808426,-0.306115737
0.9974,-0.010808426,-0.306115737
0.9976,-0.04539539,-0.306115737
0.9978,-0.04539539,0.047094729
0.998,-0.010808426,0.047094729
0.9982,-0.010808426,-0.306115737
0.9984,-0.04539539,0.047094729
0.9986,-0.010808426,-0.306115737
0.9988,-0.010808426,-0.306115737
0.999,-0.010808426,0.047094729
0.9992,-0.010808426,0.047094729
0.9994,-0.010808426,-0.306115737
0.9996,-0.010808426,0.047094729
0.9998,0.023778538,0.047094729
1,0.023778538,-0.306115737
