"Latest: Time (s)","Latest: Z-Axis Acceleration (m/sÂ²)","Latest: Potential (mV)"
0,-68.9912489033,10.4314824287
0.0002,-66.6343612109,10.8082402591
0.0004,-64.0518890534,11.1849980894
0.0006,-65.9599576538,10.8082402591
0.0008,-62.6302369557,10.4314824287
0.001,-54.1731693535,10.8082402591
0.0012,-49.121017271,10.4314824287
0.0014,-46.0521286106,10.0547245983
0.0016,-45.5281146969,9.32475630194
0.0018,-44.7808661564,9.32475630194
0.002,-40.2903253984,8.94799847156
0.0022,-37.1838393272,8.94799847156
0.0024,-35.9501742838,8.57124064118
0.0026,-36.3989933758,7.44096715003
0.0028,-37.0733969328,6.68745148927
0.003,-34.7893542239,6.31069365889
0.0032,-32.9564804451,5.93393582851
0.0034,-30.8228273796,5.55717799813
0.0036,-30.6371901635,5.18042016774
0.0038,-28.9899536008,4.45045187138
0.004,-24.461815432,4.073694041
0.0042,-21.806498291,4.073694041
0.0044,-19.1864287226,3.32017838024
0.0046,-16.3055271165,2.94342054985
0.0048,-12.3014028613,2.56666271947
0.005,-5.679558876,2.56666271947
0.0052,0.681453071593,2.56666271947
0.0054,9.85052164178,2.56666271947
0.0056,17.9692125464,2.56666271947
0.0058,24.8166409969,2.56666271947
0.006,30.5055992256,2.18990488909
0.0062,35.332166843,2.18990488909
0.0064,39.4843309034,2.18990488909
0.0066,43.0020386557,2.18990488909
0.0068,45.9957324943,2.18990488909
0.007,48.5030098302,2.18990488909
0.0072,50.6742603066,2.56666271947
0.0074,52.4695366745,2.56666271947
0.0076,54.0791758263,2.94342054985
0.0078,55.3880356914,2.94342054985
0.008,56.5112583405,3.32017838024
0.0082,57.4464939353,3.69693621062
0.0084,58.3065347084,3.69693621062
0.0086,58.156145065,4.45045187138
0.0088,56.2104790537,4.82720970176
0.009,54.7888269561,5.18042016774
0.0092,53.479967091,5.18042016774
0.0094,51.1982742202,5.55717799813
0.0096,47.5677742354,5.93393582851
0.0098,42.2171927043,6.31069365889
0.01,35.8937781675,6.31069365889
0.0102,30.2800147605,7.06420931965
0.0104,26.165448111,7.06420931965
0.0106,22.6853377695,7.06420931965
0.0108,20.7396717582,7.44096715003
0.011,21.2989332445,7.81772498041
0.0112,22.6853377695,7.81772498041
0.0114,24.0317950454,7.81772498041
0.0116,24.6310037808,8.1944828108
0.0118,24.4806141374,8.1944828108
0.012,24.2550296723,8.1944828108
0.0122,23.3949888992,8.1944828108
0.0124,24.4806141374,8.1944828108
0.0126,27.1735286893,8.1944828108
0.0128,28.820765252,8.1944828108
0.013,30.5431966364,8.1944828108
0.0132,31.8520565015,7.81772498041
0.0134,31.8520565015,7.44096715003
0.0136,30.0191827228,7.44096715003
0.0138,27.0630862949,7.44096715003
0.014,23.8814054021,7.06420931965
0.0142,19.7292413417,7.06420931965
0.0144,15.6499222649,7.06420931965
0.0146,12.9194103021,6.68745148927
0.0148,12.4329937993,6.31069365889
0.015,11.8337850639,5.93393582851
0.0152,9.17611808472,5.93393582851
0.0154,8.57690934936,5.55717799813
0.0156,8.6897015819,5.55717799813
0.0158,6.3704113003,5.18042016774
0.016,6.3704113003,5.18042016774
0.0162,8.76489640359,4.45045187138
0.0164,10.8985494691,4.45045187138
0.0166,14.489102205,4.45045187138
0.0168,20.2908526662,4.073694041
0.017,26.0902532893,4.073694041
0.0172,31.3656399987,4.073694041
0.0174,36.1170127944,3.69693621062
0.0176,40.1211370496,3.69693621062
0.0178,43.1900257099,3.69693621062
0.018,44.8725098453,3.69693621062
0.0182,45.5469134024,3.69693621062
0.0184,46.0333299052,3.32017838024
0.0186,47.3797871811,4.073694041
0.0188,47.6053716462,3.69693621062
0.019,47.4925794137,3.69693621062
0.0192,47.0061629108,4.073694041
0.0194,44.9853020778,4.073694041
0.0196,41.2819571095,4.073694041
0.0198,34.3217364265,4.073694041
0.02,26.2382930945,4.45045187138
0.0202,18.6060186927,4.45045187138
0.0204,11.7209928314,4.073694041
0.0206,5.95918961917,4.45045187138
0.0208,1.16786957442,4.45045187138
0.021,-2.01146148029,4.82720970176
0.0212,-4.14511454583,4.82720970176
0.0214,-6.65239188165,5.18042016774
0.0216,-9.23251420099,5.18042016774
0.0218,-11.9653760019,4.82720970176
0.022,-14.6958879646,5.18042016774
0.0222,-16.4559167599,5.18042016774
0.0224,-17.1655678896,5.18042016774
0.0226,-16.9423332627,5.18042016774
0.0228,-15.8943054354,5.18042016774
0.023,-13.9862368349,5.18042016774
0.0232,-11.8149863585,4.82720970176
0.0234,-11.1053352288,4.82720970176
0.0236,-10.6541662986,4.45045187138
0.0238,-11.253375034,4.45045187138
0.024,-13.0134038292,4.45045187138
0.0242,-14.6958879646,4.45045187138
0.0244,-17.2031653005,4.073694041
0.0246,-18.887999274,3.69693621062
0.0248,-20.3096513716,3.69693621062
0.025,-22.255317383,3.32017838024
0.0252,-24.7249973079,2.94342054985
0.0254,-28.054718006,2.56666271947
0.0256,-31.2363988989,2.56666271947
0.0258,-34.8269516348,2.18990488909
0.026,-38.3446593871,1.81314705871
0.0262,-40.4783124526,1.43638922833
0.0264,-41.4887428691,1.05963139795
0.0266,-40.5535072743,1.05963139795
0.0268,-38.8310758899,0.306115737185
0.027,-37.1109943437,0.306115737185
0.0272,-34.4909247753,-0.0470947287977
0.0274,-32.2468293154,-0.0470947287977
0.0276,-30.4116056985,-0.0470947287977
0.0278,-28.9147587791,-0.0470947287977
0.028,-26.2218442273,-0.0470947287977
0.0282,-22.7041364749,-0.0470947287977
0.0284,-19.785637458,-0.0470947287977
0.0286,-16.3431245273,-0.0470947287977
0.0288,-13.274235867,-0.0470947287977
0.029,-11.5165569099,-0.0470947287977
0.0292,-10.804555942,-0.0470947287977
0.0294,-10.8421533529,-0.0470947287977
0.0296,-11.253375034,-0.0470947287977
0.0298,-11.8149863585,-0.0470947287977
0.03,-11.702194126,-0.0470947287977
0.0302,-11.1429326396,-0.0470947287977
0.0304,-11.1429326396,-0.0470947287977
0.0306,-11.5917517316,-0.0470947287977
0.0308,-12.5645847373,-0.0470947287977
0.031,-13.9486394241,-0.0470947287977
0.0312,-15.5935261486,-0.0470947287977
0.0314,-17.4663471764,-0.0470947287977
0.0316,-18.1759983061,-0.0470947287977
0.0318,-18.5496225764,-0.0470947287977
0.032,-18.6248173981,-0.0470947287977
0.0322,-18.3639853603,-0.0470947287977
0.0324,-18.1384008953,-0.0470947287977
0.0326,-18.439180182,-0.0470947287977
0.0328,-19.336818366,-0.0470947287977
0.033,-19.8608322797,-0.0470947287977
0.0332,-20.6456782311,-0.0470947287977
0.0334,-21.0193025014,-0.0470947287977
0.0336,-19.4120131877,-0.0470947287977
0.0338,-17.315957533,-0.0470947287977
0.034,-15.0718620731,-0.0470947287977
0.0342,-12.9006115967,-0.0470947287977
0.0344,-11.1053352288,-0.0470947287977
0.0346,-10.0573074014,-0.0470947287977
0.0348,-10.1325022231,-0.0470947287977
0.035,-10.618918726,-0.0470947287977
0.0352,-11.0301404071,-0.0470947287977
0.0354,-11.1781802123,-0.0470947287977
0.0356,-10.35573685,-0.0470947287977
0.0358,-9.15966921748,-0.0470947287977
0.036,-7.51243265477,-0.0470947287977
0.0362,-6.27641777319,-0.0470947287977
0.0364,-5.9027935029,-0.0470947287977
0.0366,-5.56676664346,-0.0470947287977
0.0368,-6.46440482742,-0.0470947287977
0.037,-7.77326469251,-0.0470947287977
0.0372,-8.03644656844,-0.0470947287977
0.0374,-7.84845951421,-0.0470947287977
0.0376,-7.39964042223,-0.0470947287977
0.0378,-6.46440482742,-0.0470947287977
0.038,-4.92996049725,-0.0470947287977
0.0382,-3.73389286469,-0.0470947287977
0.0384,-3.47071098877,-0.0470947287977
0.0386,-2.94669707509,-0.0470947287977
0.0388,-3.35791875623,-0.0470947287977
0.039,-3.99472490244,-0.0470947287977
0.0392,-3.62110063215,-0.0470947287977
0.0394,-3.32032134538,-0.0470947287977
0.0396,-2.30989092888,-0.0470947287977
0.0398,-1.00103106379,-0.0470947287977
0.04,0.307828801306,-0.0470947287977
0.0402,1.0950245909,-0.0470947287977
0.0404,0.944634947518,-0.0470947287977
0.0406,0.794245304132,-0.0470947287977
0.0408,0.420621033845,-0.0470947287977
0.041,0.232633979613,-0.0470947287977
0.0412,0.345426212152,-0.0470947287977
0.0414,0.307828801306,-0.0470947287977
0.0416,1.35585662865,-0.0470947287977
0.0418,2.66471649375,-0.0470947287977
0.042,3.30152263996,-0.0470947287977
0.0422,3.71274432109,-0.0470947287977
0.0424,3.37671746165,-0.0470947287977
0.0426,2.73991131544,-0.0470947287977
0.0428,2.1054550074,-0.0470947287977
0.043,1.84227313148,-0.0470947287977
0.0432,1.87987054233,-0.0470947287977
0.0434,1.91746795317,-0.0470947287977
0.0436,2.77750872629,-0.0470947287977
0.0438,3.4143148725,-0.0470947287977
0.044,3.37671746165,-0.0470947287977
0.0442,3.48950969419,-0.0470947287977
0.0444,3.30152263996,-0.0470947287977
0.0446,2.73991131544,-0.0470947287977
0.0448,2.03026018571,-0.0470947287977
0.045,1.72948089894,-0.0470947287977
0.0452,2.03026018571,-0.0470947287977
0.0454,2.55427409938,-0.0470947287977
0.0456,3.18873040742,-0.0470947287977
0.0458,3.82553655363,-0.0470947287977
0.046,4.16156341307,-0.0470947287977
0.0462,4.31195305646,-0.0470947287977
0.0464,4.424745289,-0.0470947287977
0.0466,4.49994011069,-0.0470947287977
0.0468,4.72317473759,-0.0470947287977
0.047,5.17199382957,-0.0470947287977
0.0472,5.99678703002,-0.0470947287977
0.0474,7.00721744652,-0.0470947287977
0.0476,7.79206339794,-0.0470947287977
0.0478,8.466466955,-0.0470947287977
0.048,9.25131290642,-0.0470947287977
0.0482,9.28891031726,-0.0470947287977
0.0484,8.95288345782,-0.0470947287977
0.0486,8.80249381444,-0.0470947287977
0.0488,8.80249381444,-0.0470947287977
0.049,8.76489640359,-0.0470947287977
0.0492,8.80249381444,-0.0470947287977
0.0494,9.06332585218,-0.0470947287977
0.0496,8.87768863613,-0.0470947287977
0.0498,8.50406436584,-0.0470947287977
0.05,8.57690934936,-0.0470947287977
0.0502,8.24088248992,-0.0470947287977
0.0504,7.86725821963,-0.0470947287977
0.0506,7.6792711654,-0.0470947287977
0.0508,7.41843912765,-0.0470947287977
0.051,7.49363394934,-0.0470947287977
0.0512,7.79206339794,-0.0470947287977
0.0514,8.24088248992,-0.0470947287977
0.0516,8.6897015819,-0.0470947287977
0.0518,8.91528604698,-0.0470947287977
0.052,9.28891031726,-0.0470947287977
0.0522,9.54974235501,-0.0470947287977
0.0524,10.1113536795,-0.0470947287977
0.0526,10.5601727715,-0.0470947287977
0.0528,10.5977701824,-0.0470947287977
0.053,11.0465892743,-0.0470947287977
0.0532,11.1593815069,-0.0470947287977
0.0534,10.8609520583,-0.0470947287977
0.0536,11.0465892743,-0.0470947287977
0.0538,10.8609520583,-0.0470947287977
0.054,10.3745355555,-0.0470947287977
0.0542,9.88811905263,-0.0470947287977
0.0544,9.51214494416,-0.0470947287977
0.0546,9.10092326303,-0.0470947287977
0.0548,8.466466955,-0.0470947287977
0.055,8.27847990076,-0.0470947287977
0.0552,7.49363394934,-0.0470947287977
0.0554,6.445606122,-0.0470947287977
0.0556,5.88399479748,-0.0470947287977
0.0558,5.02395402436,-0.0470947287977
0.056,4.46234269984,-0.0470947287977
0.0562,3.97592619702,-0.0470947287977
0.0564,3.4143148725,-0.0470947287977
0.0566,3.26392522911,-0.0470947287977
0.0568,2.92789836967,-0.0470947287977
0.057,2.6271190829,-0.0470947287977
0.0572,2.51667668854,-0.0470947287977
0.0574,2.47907927769,-0.0470947287977
0.0576,1.99266277486,-0.0470947287977
0.0578,1.35585662865,-0.0470947287977
0.058,1.16786957442,-0.0470947287977
0.0582,0.907037536672,-0.0470947287977
0.0584,0.420621033845,-0.0470947287977
0.0586,0.122191585251,-0.0470947287977
0.0588,-0.627406793501,-0.0470947287977
0.059,-1.60023979915,-0.0470947287977
0.0592,-2.30989092888,-0.0470947287977
0.0594,-3.17228154017,-0.0470947287977
0.0596,-4.10751713498,-0.0470947287977
0.0598,-5.04275272979,-0.0470947287977
0.06,-5.75240385951,-0.0470947287977
0.0602,-6.6899892925,-0.0470947287977
0.0604,-7.700419709,-0.0470947287977
0.0606,-8.33487601703,-0.0470947287977
0.0608,-9.08447439579,-0.0470947287977
0.061,-9.75652811467,-0.0470947287977
0.0612,-10.5061264934,-0.0470947287977
0.0614,-11.2909724448,-0.0470947287977
0.0616,-11.4413620882,-0.0470947287977
0.0618,-11.3661672665,-0.0470947287977
0.062,-11.253375034,-0.0470947287977
0.0622,-11.0677378179,-0.0470947287977
0.0624,-11.1053352288,-0.0470947287977
0.0626,-11.2157776231,-0.0470947287977
0.0628,-11.1053352288,-0.0470947287977
0.063,-10.9173481746,-0.0470947287977
0.0632,-10.9173481746,-0.0470947287977
0.0634,-10.9173481746,-0.0470947287977
0.0636,-10.6541662986,-0.0470947287977
0.0638,-10.4685290826,-0.0470947287977
0.064,-10.5813213151,-0.0470947287977
0.0642,-10.5061264934,-0.0470947287977
0.0644,-10.6541662986,-0.0470947287977
0.0646,-10.9925429962,-0.0470947287977
0.0648,-11.3285698557,-0.0470947287977
0.065,-11.7397915368,-0.0470947287977
0.0652,-12.0029734127,-0.0470947287977
0.0654,-11.7773889477,-0.0470947287977
0.0656,-11.7397915368,-0.0470947287977
0.0658,-11.9277785911,-0.0470947287977
0.066,-12.0029734127,-0.0470947287977
0.0662,-11.9277785911,-0.0470947287977
0.0664,-11.702194126,-0.0470947287977
0.0666,-11.4413620882,-0.0470947287977
0.0668,-11.1429326396,-0.0470947287977
0.067,-10.804555942,-0.0470947287977
0.0672,-10.1677497958,-0.0470947287977
0.0674,-9.19491679015,-0.0470947287977
0.0676,-8.41007083873,-0.0470947287977
0.0678,-7.47483524392,-0.0470947287977
0.068,-6.38921000573,-0.0470947287977
0.0682,-5.75240385951,-0.0470947287977
0.0684,-5.26598735669,-0.0470947287977
0.0686,-4.77957085386,-0.0470947287977
0.0688,-4.10751713498,-0.0470947287977
0.069,-3.58350322131,-0.0470947287977
0.0692,-3.17228154017,-0.0470947287977
0.0694,-2.76105985904,-0.0470947287977
0.0696,-2.61067021565,-0.0470947287977
0.0698,-2.57307280481,-0.0470947287977
0.07,-2.23704594537,-0.0470947287977
0.0702,-2.49787798311,-0.0470947287977
0.0704,-2.79630743171,-0.0470947287977
0.0706,-3.02189189679,-0.0470947287977
0.0708,-3.20987895102,-0.0470947287977
0.071,-3.09708671848,-0.0470947287977
0.0712,-2.8715022534,-0.0470947287977
0.0714,-2.38508575057,-0.0470947287977
0.0716,-2.08665630198,-0.0470947287977
0.0718,-1.82347442606,-0.0470947287977
0.072,-1.37465533408,-0.0470947287977
0.0722,-1.00103106379,-0.0470947287977
0.0724,-0.216185112367,-0.0470947287977
0.0726,0.458218444692,-0.0470947287977
0.0728,1.13262200175,-0.0470947287977
0.073,2.21589740177,-0.0470947287977
0.0732,3.22632781827,-0.0470947287977
0.0734,4.12396600223,-0.0470947287977
0.0736,5.09679900788,-0.0470947287977
0.0738,5.77120256494,-0.0470947287977
0.074,6.03438444086,-0.0470947287977
0.0742,6.03438444086,-0.0470947287977
0.0744,6.25761906776,-0.0470947287977
0.0746,6.33281388946,-0.0470947287977
0.0748,6.48320353284,-0.0470947287977
0.075,6.70643815974,-0.0470947287977
0.0752,6.40800871115,-0.0470947287977
0.0754,6.06963201353,-0.0470947287977
0.0756,5.80879997578,-0.0470947287977
0.0758,5.32238347296,-0.0470947287977
0.076,4.87356438098,-0.0470947287977
0.0762,4.3495504673,-0.0470947287977
0.0764,3.86313396448,-0.0470947287977
0.0766,3.75034173194,-0.0470947287977
0.0768,3.82553655363,-0.0470947287977
0.077,4.19916082392,-0.0470947287977
0.0772,4.6479799159,-0.0470947287977
0.0774,5.17199382957,-0.0470947287977
0.0776,5.51037052719,-0.0470947287977
0.0778,5.77120256494,-0.0470947287977
0.078,6.48320353284,-0.0470947287977
0.0782,7.15525725172,-0.0470947287977
0.0784,7.94245304132,-0.0470947287977
0.0786,8.84009122528,-0.0470947287977
0.0788,9.4768973715,-0.0470947287977
0.079,10.1113536795,-0.0470947287977
0.0792,10.7481598257,-0.0470947287977
0.0794,11.2345763286,-0.0470947287977
0.0796,11.3097711503,-0.0470947287977
0.0798,11.0089918635,-0.0470947287977
0.08,10.7481598257,-0.0470947287977
0.0802,10.2993407338,-0.0470947287977
0.0804,9.92571646348,-0.0470947287977
0.0806,9.7001319984,-0.0470947287977
0.0808,9.32650772811,-0.0470947287977
0.081,8.80249381444,-0.0470947287977
0.0812,8.12809025738,-0.0470947287977
0.0814,7.34324430596,-0.0470947287977
0.0816,6.6688407489,-0.0470947287977
0.0818,6.18242424607,-0.0470947287977
0.082,5.73360515409,-0.0470947287977
0.0822,5.47277311634,-0.0470947287977
0.0824,5.4351757055,-0.0470947287977
0.0826,5.73360515409,-0.0470947287977
0.0828,6.25761906776,-0.0470947287977
0.083,6.89442521398,-0.0470947287977
0.0832,7.4560365385,-0.0470947287977
0.0834,7.71686857624,-0.0470947287977
0.0836,8.05289543569,-0.0470947287977
0.0838,8.466466955,-0.0470947287977
0.084,8.87768863613,-0.0470947287977
0.0842,9.4017025498,-0.0470947287977
0.0844,9.96331387432,-0.0470947287977
0.0846,10.1113536795,-0.0470947287977
0.0848,10.0737562687,-0.0470947287977
0.085,9.99856144699,-0.0470947287977
0.0852,9.66253458755,-0.0470947287977
0.0854,9.10092326303,-0.0470947287977
0.0856,8.20328507907,-0.0470947287977
0.0858,7.26804948426,-0.0470947287977
0.086,6.14482683523,-0.0470947287977
0.0862,5.28478606211,-0.0470947287977
0.0864,4.53753752154,-0.0470947287977
0.0866,3.56470451588,-0.0470947287977
0.0868,2.70231390459,-0.0470947287977
0.087,1.50624627204,-0.0470947287977
0.0872,0.458218444692,-0.0470947287977
0.0874,-0.178587701521,-0.0470947287977
0.0876,-0.777796436887,-0.0470947287977
0.0878,-1.11382329633,-0.0470947287977
0.088,-1.22661552887,-0.0470947287977
0.0882,-1.22661552887,-0.0470947287977
0.0884,-1.07622588548,-0.0470947287977
0.0886,-0.888238831249,-0.0470947287977
0.0888,-0.364224917575,-0.0470947287977
0.089,-0.253782523214,-0.0470947287977
0.0892,-0.328977344907,-0.0470947287977
0.0894,-0.178587701521,-0.0470947287977
0.0896,-0.401822328422,-0.0470947287977
0.0898,-0.401822328422,-0.0470947287977
0.09,-0.178587701521,-0.0470947287977
0.0902,-0.328977344907,-0.0470947287977
0.0904,-0.665004204347,-0.0470947287977
0.0906,-1.30181035056,-0.0470947287977
0.0908,-2.16185112367,-0.0470947287977
0.091,-3.13468412933,-0.0470947287977
0.0912,-4.22030936752,-0.0470947287977
0.0914,-5.34118217838,-0.0470947287977
0.0916,-6.57719705996,-0.0470947287977
0.0918,-7.55003006561,-0.0470947287977
0.092,-8.37247342788,-0.0470947287977
0.0922,-9.15966921748,-0.0470947287977
0.0924,-9.68133329297,-0.0470947287977
0.0926,-10.4685290826,-0.0470947287977
0.0928,-11.2909724448,-0.0470947287977
0.093,-11.8149863585,-0.0470947287977
0.0932,-12.2638054505,-0.0470947287977
0.0934,-12.376597683,-0.0470947287977
0.0936,-12.0781682344,-0.0470947287977
0.0938,-11.5541543208,-0.0470947287977
0.094,-11.1781802123,-0.0470947287977
0.0942,-10.7669585312,-0.0470947287977
0.0944,-10.0949048123,-0.0470947287977
0.0946,-9.57089089861,-0.0470947287977
0.0948,-9.23251420099,-0.0470947287977
0.095,-8.89648734155,-0.0470947287977
0.0952,-8.78369510901,-0.0470947287977
0.0954,-8.56046048211,-0.0470947287977
0.0956,-8.14923880098,-0.0470947287977
0.0958,-7.84845951421,-0.0470947287977
0.096,-7.700419709,-0.0470947287977
0.0962,-7.88605692505,-0.0470947287977
0.0964,-8.25968119534,-0.0470947287977
0.0966,-8.70850028732,-0.0470947287977
0.0968,-9.23251420099,-0.0470947287977
0.097,-9.68133329297,-0.0470947287977
0.0972,-10.0573074014,-0.0470947287977
0.0974,-10.2429446175,-0.0470947287977
0.0976,-10.618918726,-0.0470947287977
0.0978,-10.8421533529,-0.0470947287977
0.098,-10.6541662986,-0.0470947287977
0.0982,-10.5061264934,-0.0470947287977
0.0984,-10.5437239043,-0.0470947287977
0.0986,-10.3933342609,-0.0470947287977
0.0988,-10.2053472066,-0.0470947287977
0.099,-9.68133329297,-0.0470947287977
0.0992,-8.89648734155,-0.0470947287977
0.0994,-7.88605692505,-0.0470947287977
0.0996,-6.95082133025,-0.0470947287977
0.0998,-6.16597537883,-0.0470947287977
0.1,-5.34118217838,-0.0470947287977
0.1002,-4.55633622696,-0.0470947287977
0.1004,-3.91953008075,-0.0470947287977
0.1006,-3.28272393454,-0.0470947287977
0.1008,-2.6482676265,-0.0470947287977
0.101,-2.16185112367,-0.0470947287977
0.1012,-1.78822685339,-0.0470947287977
0.1014,-1.37465533408,-0.0470947287977
0.1016,-0.888238831249,-0.0470947287977
0.1018,-0.627406793501,-0.0470947287977
0.102,-0.815393847734,-0.0470947287977
0.1022,-1.11382329633,-0.0470947287977
0.1024,-1.44985015577,-0.0470947287977
0.1026,-1.60023979915,-0.0470947287977
0.1028,-1.56264238831,-0.0470947287977
0.103,-1.52504497746,-0.0470947287977
0.1032,-1.41225274492,-0.0470947287977
0.1034,-1.37465533408,-0.0470947287977
0.1036,-1.22661552887,-0.0470947287977
0.1038,-0.963433652942,-0.0470947287977
0.104,-0.777796436887,-0.0470947287977
0.1042,-0.477017150115,-0.0470947287977
0.1044,-0.0281980581349,-0.0470947287977
0.1046,0.270231390459,-0.0470947287977
0.1048,0.869440125825,-0.0470947287977
0.105,1.76707830979,-0.0470947287977
0.1052,2.92789836967,-0.0470947287977
0.1054,3.6375494994,-0.0470947287977
0.1056,4.16156341307,-0.0470947287977
0.1058,4.68557732675,-0.0470947287977
0.106,5.02395402436,-0.0470947287977
0.1062,5.47277311634,-0.0470947287977
0.1064,5.95918961917,-0.0470947287977
0.1066,6.22002165692,-0.0470947287977
0.1068,6.40800871115,-0.0470947287977
0.107,6.55604851636,-0.0470947287977
0.1072,6.70643815974,-0.0470947287977
0.1074,6.74403557059,-0.0470947287977
0.1076,6.59364592721,-0.0470947287977
0.1078,6.33281388946,-0.0470947287977
0.108,5.92159220832,-0.0470947287977
0.1082,5.51037052719,-0.0470947287977
0.1084,5.32238347296,-0.0470947287977
0.1086,5.39757829465,-0.0470947287977
0.1088,5.6584103324,-0.0470947287977
0.109,5.54796793804,-0.0470947287977
0.1092,5.4351757055,-0.0470947287977
0.1094,5.47277311634,-0.0470947287977
0.1096,5.47277311634,-0.0470947287977
0.1098,5.58321551071,-0.0470947287977
0.11,5.80879997578,-0.0470947287977
0.1102,6.06963201353,-0.0470947287977
0.1104,6.40800871115,-0.0470947287977
0.1106,6.85682780313,-0.0470947287977
0.1108,7.52888152201,-0.0470947287977
0.111,8.01529802484,-0.0470947287977
0.1112,8.3912721333,-0.0470947287977
0.1114,8.65210417105,-0.0470947287977
0.1116,8.57690934936,-0.0470947287977
0.1118,8.53931193851,-0.0470947287977
0.112,8.6897015819,-0.0470947287977
0.1122,8.91528604698,-0.0470947287977
0.1124,9.06332585218,-0.0470947287977
0.1126,8.95288345782,-0.0470947287977
0.1128,8.80249381444,-0.0470947287977
0.113,8.65210417105,-0.0470947287977
0.1132,8.35367472246,-0.0470947287977
0.1134,7.98005045217,-0.0470947287977
0.1136,7.49363394934,-0.0470947287977
0.1138,7.04246501919,-0.0470947287977
0.114,6.55604851636,-0.0470947287977
0.1142,6.25761906776,-0.0470947287977
0.1144,6.29521647861,-0.0470947287977
0.1146,6.22002165692,-0.0470947287977
0.1148,5.99678703002,-0.0470947287977
0.115,5.77120256494,-0.0470947287977
0.1152,5.3599808838,-0.0470947287977
0.1154,4.98635661352,-0.0470947287977
0.1156,5.02395402436,-0.0470947287977
0.1158,5.09679900788,-0.0470947287977
0.116,5.06155143521,-0.0470947287977
0.1162,5.06155143521,-0.0470947287977
0.1164,5.13439641873,-0.0470947287977
0.1166,5.28478606211,-0.0470947287977
0.1168,5.32238347296,-0.0470947287977
0.117,5.20959124042,-0.0470947287977
0.1172,4.94875920267,-0.0470947287977
0.1174,4.6479799159,-0.0470947287977
0.1176,4.31195305646,-0.0470947287977
0.1178,4.16156341307,-0.0470947287977
0.118,4.12396600223,-0.0470947287977
0.1182,3.97592619702,-0.0470947287977
0.1184,3.52710710504,-0.0470947287977
0.1186,3.07828801306,-0.0470947287977
0.1188,2.44148186684,-0.0470947287977
0.119,1.72948089894,-0.0470947287977
0.1192,1.24306439611,-0.0470947287977
0.1194,0.719050482439,-0.0470947287977
0.1196,0.122191585251,-0.0470947287977
0.1198,-0.401822328422,-0.0470947287977
0.12,-0.702601615194,-0.0470947287977
0.1202,-0.963433652942,-0.0470947287977
0.1204,-1.30181035056,-0.0470947287977
0.1206,-1.71303203169,-0.0470947287977
0.1208,-2.23704594537,-0.0470947287977
0.121,-2.8715022534,-0.0470947287977
0.1212,-3.32032134538,-0.0470947287977
0.1214,-3.47071098877,-0.0470947287977
0.1216,-3.39551616707,-0.0470947287977
0.1218,-3.43311357792,-0.0470947287977
0.122,-3.58350322131,-0.0470947287977
0.1222,-3.69629545385,-0.0470947287977
0.1224,-3.95712749159,-0.0470947287977
0.1226,-4.14511454583,-0.0470947287977
0.1228,-4.25790677837,-0.0470947287977
0.123,-4.48114140527,-0.0470947287977
0.1232,-4.77957085386,-0.0470947287977
0.1234,-4.96755790809,-0.0470947287977
0.1236,-4.92996049725,-0.0470947287977
0.1238,-4.8923630864,-0.0470947287977
0.124,-5.04275272979,-0.0470947287977
0.1242,-5.26598735669,-0.0470947287977
0.1244,-5.60436405431,-0.0470947287977
0.1246,-6.05318314629,-0.0470947287977
0.1248,-6.46440482742,-0.0470947287977
0.125,-6.61479447081,-0.0470947287977
0.1252,-6.65239188165,-0.0470947287977
0.1254,-6.83802909771,-0.0470947287977
0.1256,-7.06361356279,-0.0470947287977
0.1258,-7.17640579533,-0.0470947287977
0.126,-7.32444560053,-0.0470947287977
0.1262,-7.39964042223,-0.0470947287977
0.1264,-7.51243265477,-0.0470947287977
0.1266,-7.81086210336,-0.0470947287977
0.1268,-7.99884915759,-0.0470947287977
0.127,-7.96125174675,-0.0470947287977
0.1272,-7.700419709,-0.0470947287977
0.1274,-7.36204301138,-0.0470947287977
0.1276,-7.06361356279,-0.0470947287977
0.1278,-6.9132239194,-0.0470947287977
0.128,-6.87562650855,-0.0470947287977
0.1282,-6.83802909771,-0.0470947287977
0.1284,-6.72523686517,-0.0470947287977
0.1286,-6.53959964911,-0.0470947287977
0.1288,-6.23882036234,-0.0470947287977
0.129,-6.09078055713,-0.0470947287977
0.1292,-5.86519609205,-0.0470947287977
0.1294,-5.45397441092,-0.0470947287977
0.1296,-5.11794755148,-0.0470947287977
0.1298,-4.8923630864,-0.0470947287977
0.13,-4.81716826471,-0.0470947287977
0.1302,-4.96755790809,-0.0470947287977
0.1304,-5.15554496233,-0.0470947287977
0.1306,-5.11794755148,-0.0470947287977
0.1308,-4.81716826471,-0.0470947287977
0.131,-4.55633622696,-0.0470947287977
0.1312,-4.29315435103,-0.0470947287977
0.1314,-4.10751713498,-0.0470947287977
0.1316,-4.06991972413,-0.0470947287977
0.1318,-3.99472490244,-0.0470947287977
0.132,-3.8819326699,-0.0470947287977
0.1322,-3.77149027554,-0.0470947287977
0.1324,-3.73389286469,-0.0470947287977
0.1326,-3.658698043,-0.0470947287977
0.1328,-3.39551616707,-0.0470947287977
0.133,-2.90909966425,-0.0470947287977
0.1332,-2.30989092888,-0.0470947287977
0.1334,-1.8610718369,-0.0470947287977
0.1336,-1.60023979915,-0.0470947287977
0.1338,-1.48744756661,-0.0470947287977
0.134,-1.37465533408,-0.0470947287977
0.1342,-1.11382329633,-0.0470947287977
0.1344,-0.627406793501,-0.0470947287977
0.1346,-0.216185112367,-0.0470947287977
0.1348,0.122191585251,-0.0470947287977
0.135,0.495815855538,-0.0470947287977
0.1352,0.794245304132,-0.0470947287977
0.1354,1.05742718006,-0.0470947287977
0.1356,1.31825921781,-0.0470947287977
0.1358,1.43105145034,-0.0470947287977
0.136,1.31825921781,-0.0470947287977
0.1362,1.24306439611,-0.0470947287977
0.1364,1.3934540395,-0.0470947287977
0.1366,1.69188348809,-0.0470947287977
0.1368,1.99266277486,-0.0470947287977
0.137,2.21589740177,-0.0470947287977
0.1372,2.36628704515,-0.0470947287977
0.1374,2.21589740177,-0.0470947287977
0.1376,2.14070258007,-0.0470947287977
0.1378,2.17829999092,-0.0470947287977
0.138,2.44148186684,-0.0470947287977
0.1382,2.59187151023,-0.0470947287977
0.1384,2.73991131544,-0.0470947287977
0.1386,2.96549578052,-0.0470947287977
0.1388,3.30152263996,-0.0470947287977
0.139,3.71274432109,-0.0470947287977
0.1392,4.01352360786,-0.0470947287977
0.1394,4.12396600223,-0.0470947287977
0.1396,4.12396600223,-0.0470947287977
0.1398,4.08636859138,-0.0470947287977
0.14,4.31195305646,-0.0470947287977
0.1402,4.68557732675,-0.0470947287977
0.1404,4.94875920267,-0.0470947287977
0.1406,5.20959124042,-0.0470947287977
0.1408,5.32238347296,-0.0470947287977
0.141,5.28478606211,-0.0470947287977
0.1412,5.28478606211,-0.0470947287977
0.1414,5.24718865126,-0.0470947287977
0.1416,5.20959124042,-0.0470947287977
0.1418,4.98635661352,-0.0470947287977
0.142,4.76077214844,-0.0470947287977
0.1422,4.79836955928,-0.0470947287977
0.1424,4.91116179182,-0.0470947287977
0.1426,5.09679900788,-0.0470947287977
0.1428,5.09679900788,-0.0470947287977
0.143,4.87356438098,-0.0470947287977
0.1432,4.61038250505,-0.0470947287977
0.1434,4.3495504673,-0.0470947287977
0.1436,4.27435564561,-0.0470947287977
0.1438,4.3495504673,-0.0470947287977
0.144,4.424745289,-0.0470947287977
0.1442,4.49994011069,-0.0470947287977
0.1444,4.57513493238,-0.0470947287977
0.1446,4.61038250505,-0.0470947287977
0.1448,4.61038250505,-0.0470947287977
0.145,4.6479799159,-0.0470947287977
0.1452,4.53753752154,-0.0470947287977
0.1454,4.23675823477,-0.0470947287977
0.1456,4.01352360786,-0.0470947287977
0.1458,4.05112101871,-0.0470947287977
0.146,4.16156341307,-0.0470947287977
0.1462,4.19916082392,-0.0470947287977
0.1464,4.19916082392,-0.0470947287977
0.1466,3.90073137532,-0.0470947287977
0.1468,3.52710710504,-0.0470947287977
0.147,3.22632781827,-0.0470947287977
0.1472,2.96549578052,-0.0470947287977
0.1474,2.70231390459,-0.0470947287977
0.1476,2.47907927769,-0.0470947287977
0.1478,2.17829999092,-0.0470947287977
0.148,1.99266277486,-0.0470947287977
0.1482,1.87987054233,-0.0470947287977
0.1484,1.87987054233,-0.0470947287977
0.1486,1.72948089894,-0.0470947287977
0.1488,1.43105145034,-0.0470947287977
0.149,0.982232358365,-0.0470947287977
0.1492,0.646205498924,-0.0470947287977
0.1494,0.608608088078,-0.0470947287977
0.1496,0.681453071593,-0.0470947287977
0.1498,0.719050482439,-0.0470947287977
0.15,0.681453071593,-0.0470947287977
0.1502,0.533413266385,-0.0470947287977
0.1504,0.345426212152,-0.0470947287977
0.1506,0.195036568766,-0.0470947287977
0.1508,0.0469967635581,-0.0470947287977
0.151,-0.178587701521,-0.0470947287977
0.1512,-0.401822328422,-0.0470947287977
0.1514,-0.627406793501,-0.0470947287977
0.1516,-0.702601615194,-0.0470947287977
0.1518,-0.665004204347,-0.0470947287977
0.152,-0.627406793501,-0.0470947287977
0.1522,-0.777796436887,-0.0470947287977
0.1524,-1.07622588548,-0.0470947287977
0.1526,-1.60023979915,-0.0470947287977
0.1528,-2.01146148029,-0.0470947287977
0.153,-2.12425371283,-0.0470947287977
0.1532,-2.16185112367,-0.0470947287977
0.1534,-2.42268316142,-0.0470947287977
0.1536,-2.57307280481,-0.0470947287977
0.1538,-2.53547539396,-0.0470947287977
0.154,-2.57307280481,-0.0470947287977
0.1542,-2.72346244819,-0.0470947287977
0.1544,-2.72346244819,-0.0470947287977
0.1546,-2.8715022534,-0.0470947287977
0.1548,-3.20987895102,-0.0470947287977
0.155,-3.43311357792,-0.0470947287977
0.1552,-3.50830839961,-0.0470947287977
0.1554,-3.39551616707,-0.0470947287977
0.1556,-3.20987895102,-0.0470947287977
0.1558,-3.17228154017,-0.0470947287977
0.156,-3.17228154017,-0.0470947287977
0.1562,-3.17228154017,-0.0470947287977
0.1564,-3.09708671848,-0.0470947287977
0.1566,-3.05948930763,-0.0470947287977
0.1568,-3.17228154017,-0.0470947287977
0.157,-3.32032134538,-0.0470947287977
0.1572,-3.50830839961,-0.0470947287977
0.1574,-3.62110063215,-0.0470947287977
0.1576,-3.62110063215,-0.0470947287977
0.1578,-3.50830839961,-0.0470947287977
0.158,-3.47071098877,-0.0470947287977
0.1582,-3.43311357792,-0.0470947287977
0.1584,-3.54590581046,-0.0470947287977
0.1586,-3.62110063215,-0.0470947287977
0.1588,-3.54590581046,-0.0470947287977
0.159,-3.35791875623,-0.0470947287977
0.1592,-3.35791875623,-0.0470947287977
0.1594,-3.47071098877,-0.0470947287977
0.1596,-3.54590581046,-0.0470947287977
0.1598,-3.54590581046,-0.0470947287977
0.16,-3.35791875623,-0.0470947287977
0.1602,-3.05948930763,-0.0470947287977
0.1604,-2.94669707509,-0.0470947287977
0.1606,-2.79630743171,-0.0470947287977
0.1608,-2.68586503735,-0.0470947287977
0.161,-2.57307280481,-0.0470947287977
0.1612,-2.42268316142,-0.0470947287977
0.1614,-2.30989092888,-0.0470947287977
0.1616,-2.30989092888,-0.0470947287977
0.1618,-2.46028057227,-0.0470947287977
0.162,-2.49787798311,-0.0470947287977
0.1622,-2.34748833973,-0.0470947287977
0.1624,-2.08665630198,-0.0470947287977
0.1626,-1.71303203169,-0.0470947287977
0.1628,-1.52504497746,-0.0470947287977
0.163,-1.60023979915,-0.0470947287977
0.1632,-1.60023979915,-0.0470947287977
0.1634,-1.60023979915,-0.0470947287977
0.1636,-1.52504497746,-0.0470947287977
0.1638,-1.52504497746,-0.0470947287977
0.164,-1.48744756661,-0.0470947287977
0.1642,-1.37465533408,-0.0470947287977
0.1644,-1.11382329633,-0.0470947287977
0.1646,-0.777796436887,-0.0470947287977
0.1648,-0.401822328422,-0.0470947287977
0.165,-0.140990290674,-0.0470947287977
0.1652,-0.0657954689814,-0.0470947287977
0.1654,-0.253782523214,-0.0470947287977
0.1656,-0.328977344907,-0.0470947287977
0.1658,-0.216185112367,-0.0470947287977
0.166,0.0469967635581,-0.0470947287977
0.1662,0.307828801306,-0.0470947287977
0.1664,0.533413266385,-0.0470947287977
0.1666,0.719050482439,-0.0470947287977
0.1668,0.907037536672,-0.0470947287977
0.167,1.05742718006,-0.0470947287977
0.1672,1.13262200175,-0.0470947287977
0.1674,0.982232358365,-0.0470947287977
0.1676,0.756647893286,-0.0470947287977
0.1678,0.719050482439,-0.0470947287977
0.168,0.794245304132,-0.0470947287977
0.1682,1.0950245909,-0.0470947287977
0.1684,1.50624627204,-0.0470947287977
0.1686,1.76707830979,-0.0470947287977
0.1688,1.87987054233,-0.0470947287977
0.169,1.76707830979,-0.0470947287977
0.1692,1.69188348809,-0.0470947287977
0.1694,1.69188348809,-0.0470947287977
0.1696,1.72948089894,-0.0470947287977
0.1698,1.76707830979,-0.0470947287977
0.17,1.80467572063,-0.0470947287977
0.1702,2.06785759656,-0.0470947287977
0.1704,2.51667668854,-0.0470947287977
0.1706,2.81510613713,-0.0470947287977
0.1708,3.00309319136,-0.0470947287977
0.171,2.89030095882,-0.0470947287977
0.1712,2.6271190829,-0.0470947287977
0.1714,2.44148186684,-0.0470947287977
0.1716,2.36628704515,-0.0470947287977
0.1718,2.44148186684,-0.0470947287977
0.172,2.66471649375,-0.0470947287977
0.1722,2.85270354798,-0.0470947287977
0.1724,2.92789836967,-0.0470947287977
0.1726,2.92789836967,-0.0470947287977
0.1728,2.92789836967,-0.0470947287977
0.173,2.85270354798,-0.0470947287977
0.1732,2.6271190829,-0.0470947287977
0.1734,2.36628704515,-0.0470947287977
0.1736,2.06785759656,-0.0470947287977
0.1738,2.06785759656,-0.0470947287977
0.174,2.403884456,-0.0470947287977
0.1742,2.6271190829,-0.0470947287977
0.1744,2.81510613713,-0.0470947287977
0.1746,2.77750872629,-0.0470947287977
0.1748,2.55427409938,-0.0470947287977
0.175,2.21589740177,-0.0470947287977
0.1752,2.06785759656,-0.0470947287977
0.1754,1.99266277486,-0.0470947287977
0.1756,1.95506536402,-0.0470947287977
0.1758,1.95506536402,-0.0470947287977
0.176,1.91746795317,-0.0470947287977
0.1762,2.03026018571,-0.0470947287977
0.1764,2.21589740177,-0.0470947287977
0.1766,2.21589740177,-0.0470947287977
0.1768,1.99266277486,-0.0470947287977
0.177,1.61903850458,-0.0470947287977
0.1772,1.28066180696,-0.0470947287977
0.1774,1.13262200175,-0.0470947287977
0.1776,1.0950245909,-0.0470947287977
0.1778,1.16786957442,-0.0470947287977
0.178,1.16786957442,-0.0470947287977
0.1782,1.01982976921,-0.0470947287977
0.1784,0.869440125825,-0.0470947287977
0.1786,0.719050482439,-0.0470947287977
0.1788,0.533413266385,-0.0470947287977
0.179,0.383023622999,-0.0470947287977
0.1792,0.122191585251,-0.0470947287977
0.1794,-0.0281980581349,-0.0470947287977
0.1796,-0.140990290674,-0.0470947287977
0.1798,-0.0657954689814,-0.0470947287977
0.18,0.0845941744046,-0.0470947287977
0.1802,0.122191585251,-0.0470947287977
0.1804,-0.0657954689814,-0.0470947287977
0.1806,-0.328977344907,-0.0470947287977
0.1808,-0.514614560961,-0.0470947287977
0.181,-0.589809382654,-0.0470947287977
0.1812,-0.589809382654,-0.0470947287977
0.1814,-0.514614560961,-0.0470947287977
0.1816,-0.514614560961,-0.0470947287977
0.1818,-0.627406793501,-0.0470947287977
0.182,-0.627406793501,-0.0470947287977
0.1822,-0.627406793501,-0.0470947287977
0.1824,-0.702601615194,-0.0470947287977
0.1826,-0.888238831249,-0.0470947287977
0.1828,-1.11382329633,-0.0470947287977
0.183,-1.30181035056,-0.0470947287977
0.1832,-1.37465533408,-0.0470947287977
0.1834,-1.26421293971,-0.0470947287977
0.1836,-1.11382329633,-0.0470947287977
0.1838,-1.18901811802,-0.0470947287977
0.184,-1.37465533408,-0.0470947287977
0.1842,-1.56264238831,-0.0470947287977
0.1844,-1.71303203169,-0.0470947287977
0.1846,-1.78822685339,-0.0470947287977
0.1848,-1.75062944254,-0.0470947287977
0.185,-1.71303203169,-0.0470947287977
0.1852,-1.67543462085,-0.0470947287977
0.1854,-1.71303203169,-0.0470947287977
0.1856,-1.63783721,-0.0470947287977
0.1858,-1.52504497746,-0.0470947287977
0.186,-1.56264238831,-0.0470947287977
0.1862,-1.63783721,-0.0470947287977
0.1864,-1.78822685339,-0.0470947287977
0.1866,-1.8610718369,-0.0470947287977
0.1868,-1.78822685339,-0.0470947287977
0.187,-1.52504497746,-0.0470947287977
0.1872,-1.30181035056,-0.0470947287977
0.1874,-1.33705792323,-0.0470947287977
0.1876,-1.37465533408,-0.0470947287977
0.1878,-1.41225274492,-0.0470947287977
0.188,-1.52504497746,-0.0470947287977
0.1882,-1.56264238831,-0.0470947287977
0.1884,-1.56264238831,-0.0470947287977
0.1886,-1.60023979915,-0.0470947287977
0.1888,-1.67543462085,-0.0470947287977
0.189,-1.67543462085,-0.0470947287977
0.1892,-1.52504497746,-0.0470947287977
0.1894,-1.37465533408,-0.0470947287977
0.1896,-1.37465533408,-0.0470947287977
0.1898,-1.52504497746,-0.0470947287977
0.19,-1.71303203169,-0.0470947287977
0.1902,-1.78822685339,-0.0470947287977
0.1904,-1.67543462085,-0.0470947287977
0.1906,-1.52504497746,-0.0470947287977
0.1908,-1.30181035056,-0.0470947287977
0.191,-1.22661552887,-0.0470947287977
0.1912,-1.18901811802,-0.0470947287977
0.1914,-1.03862847463,-0.0470947287977
0.1916,-0.963433652942,-0.0470947287977
0.1918,-0.925836242095,-0.0470947287977
0.192,-0.888238831249,-0.0470947287977
0.1922,-0.888238831249,-0.0470947287977
0.1924,-0.888238831249,-0.0470947287977
0.1926,-0.702601615194,-0.0470947287977
0.1928,-0.401822328422,-0.0470947287977
0.193,-0.178587701521,-0.0470947287977
0.1932,-0.140990290674,-0.0470947287977
0.1934,-0.216185112367,-0.0470947287977
0.1936,-0.364224917575,-0.0470947287977
0.1938,-0.401822328422,-0.0470947287977
0.194,-0.364224917575,-0.0470947287977
0.1942,-0.328977344907,-0.0470947287977
0.1944,-0.253782523214,-0.0470947287977
0.1946,-0.178587701521,-0.0470947287977
0.1948,-0.140990290674,-0.0470947287977
0.195,-0.0281980581349,-0.0470947287977
0.1952,0.0469967635581,-0.0470947287977
0.1954,0.0469967635581,-0.0470947287977
0.1956,-0.0281980581349,-0.0470947287977
0.1958,-0.178587701521,-0.0470947287977
0.196,-0.178587701521,-0.0470947287977
0.1962,-0.0281980581349,-0.0470947287977
0.1964,0.270231390459,-0.0470947287977
0.1966,0.533413266385,-0.0470947287977
0.1968,0.608608088078,-0.0470947287977
0.197,0.681453071593,-0.0470947287977
0.1972,0.681453071593,-0.0470947287977
0.1974,0.719050482439,-0.0470947287977
0.1976,0.794245304132,-0.0470947287977
0.1978,0.869440125825,-0.0470947287977
0.198,0.944634947518,-0.0470947287977
0.1982,1.01982976921,-0.0470947287977
0.1984,1.16786957442,-0.0470947287977
0.1986,1.3934540395,-0.0470947287977
0.1988,1.54384368288,-0.0470947287977
0.199,1.58144109373,-0.0470947287977
0.1992,1.3934540395,-0.0470947287977
0.1994,1.20546698527,-0.0470947287977
0.1996,1.13262200175,-0.0470947287977
0.1998,1.20546698527,-0.0470947287977
0.2,1.35585662865,-0.0470947287977
0.2002,1.43105145034,-0.0470947287977
0.2004,1.43105145034,-0.0470947287977
0.2006,1.3934540395,-0.0470947287977
0.2008,1.35585662865,-0.0470947287977
0.201,1.28066180696,-0.0470947287977
0.2012,1.20546698527,-0.0470947287977
0.2014,1.13262200175,-0.0470947287977
0.2016,1.01982976921,-0.0470947287977
0.2018,1.01982976921,-0.0470947287977
0.202,1.16786957442,-0.0470947287977
0.2022,1.43105145034,-0.0470947287977
0.2024,1.61903850458,-0.0470947287977
0.2026,1.61903850458,-0.0470947287977
0.2028,1.46864886119,-0.0470947287977
0.203,1.28066180696,-0.0470947287977
0.2032,1.24306439611,-0.0470947287977
0.2034,1.35585662865,-0.0470947287977
0.2036,1.46864886119,-0.0470947287977
0.2038,1.50624627204,-0.0470947287977
0.204,1.61903850458,-0.0470947287977
0.2042,1.61903850458,-0.0470947287977
0.2044,1.69188348809,-0.0470947287977
0.2046,1.61903850458,-0.0470947287977
0.2048,1.50624627204,-0.0470947287977
0.205,1.20546698527,-0.0470947287977
0.2052,1.01982976921,-0.0470947287977
0.2054,0.869440125825,-0.0470947287977
0.2056,0.869440125825,-0.0470947287977
0.2058,1.01982976921,-0.0470947287977
0.206,1.0950245909,-0.0470947287977
0.2062,0.907037536672,-0.0470947287977
0.2064,0.719050482439,-0.0470947287977
0.2066,0.533413266385,-0.0470947287977
0.2068,0.383023622999,-0.0470947287977
0.207,0.232633979613,-0.0470947287977
0.2072,0.15743915792,-0.0470947287977
0.2074,0.0845941744046,-0.0470947287977
0.2076,0.0845941744046,-0.0470947287977
0.2078,0.232633979613,-0.0470947287977
0.208,0.383023622999,-0.0470947287977
0.2082,0.383023622999,-0.0470947287977
0.2084,0.307828801306,-0.0470947287977
0.2086,0.0845941744046,-0.0470947287977
0.2088,-0.103392879828,-0.0470947287977
0.209,-0.178587701521,-0.0470947287977
0.2092,-0.103392879828,-0.0470947287977
0.2094,0.0469967635581,-0.0470947287977
0.2096,0.0845941744046,-0.0470947287977
0.2098,0.0845941744046,-0.0470947287977
0.21,0.00939935271163,-0.0470947287977
0.2102,-0.0281980581349,-0.0470947287977
0.2104,-0.140990290674,-0.0470947287977
0.2106,-0.328977344907,-0.0470947287977
0.2108,-0.552211971808,-0.0470947287977
0.211,-0.702601615194,-0.0470947287977
0.2112,-0.777796436887,-0.0470947287977
0.2114,-0.665004204347,-0.0470947287977
0.2116,-0.589809382654,-0.0470947287977
0.2118,-0.589809382654,-0.0470947287977
0.212,-0.702601615194,-0.0470947287977
0.2122,-0.925836242095,-0.0470947287977
0.2124,-1.18901811802,-0.0470947287977
0.2126,-1.26421293971,-0.0470947287977
0.2128,-1.22661552887,-0.0470947287977
0.213,-1.18901811802,-0.0470947287977
0.2132,-1.18901811802,-0.0470947287977
0.2134,-1.11382329633,-0.0470947287977
0.2136,-1.03862847463,-0.0470947287977
0.2138,-0.925836242095,-0.0470947287977
0.214,-0.888238831249,-0.0470947287977
0.2142,-1.00103106379,-0.0470947287977
0.2144,-1.15142070717,-0.0470947287977
0.2146,-1.26421293971,-0.0470947287977
0.2148,-1.22661552887,-0.0470947287977
0.215,-1.07622588548,-0.0470947287977
0.2152,-0.888238831249,-0.0470947287977
0.2154,-0.740199026041,-0.0470947287977
0.2156,-0.777796436887,-0.0470947287977
0.2158,-0.888238831249,-0.0470947287977
0.216,-1.03862847463,-0.0470947287977
0.2162,-1.11382329633,-0.0470947287977
0.2164,-1.11382329633,-0.0470947287977
0.2166,-1.15142070717,-0.0470947287977
0.2168,-1.22661552887,-0.0470947287977
0.217,-1.15142070717,-0.0470947287977
0.2172,-1.00103106379,-0.0470947287977
0.2174,-0.888238831249,-0.0470947287977
0.2176,-0.963433652942,-0.0470947287977
0.2178,-1.07622588548,-0.0470947287977
0.218,-1.22661552887,-0.0470947287977
0.2182,-1.37465533408,-0.0470947287977
0.2184,-1.37465533408,-0.0470947287977
0.2186,-1.18901811802,-0.0470947287977
0.2188,-1.00103106379,-0.0470947287977
0.219,-0.888238831249,-0.0470947287977
0.2192,-0.777796436887,-0.0470947287977
0.2194,-0.740199026041,-0.0470947287977
0.2196,-0.740199026041,-0.0470947287977
0.2198,-0.702601615194,-0.0470947287977
0.22,-0.777796436887,-0.0470947287977
0.2202,-0.815393847734,-0.0470947287977
0.2204,-0.815393847734,-0.0470947287977
0.2206,-0.665004204347,-0.0470947287977
0.2208,-0.364224917575,-0.0470947287977
0.221,-0.103392879828,-0.0470947287977
0.2212,-0.0281980581349,-0.0470947287977
0.2214,-0.103392879828,-0.0470947287977
0.2216,-0.216185112367,-0.0470947287977
0.2218,-0.401822328422,-0.0470947287977
0.222,-0.439419739268,-0.0470947287977
0.2222,-0.364224917575,-0.0470947287977
0.2224,-0.29137993406,-0.0470947287977
0.2226,-0.178587701521,-0.0470947287977
0.2228,-0.103392879828,-0.0470947287977
0.223,0.00939935271163,-0.0470947287977
0.2232,0.0845941744046,-0.0470947287977
0.2234,0.0845941744046,-0.0470947287977
0.2236,-0.0281980581349,-0.0470947287977
0.2238,-0.216185112367,-0.0470947287977
0.224,-0.29137993406,-0.0470947287977
0.2242,-0.140990290674,-0.0470947287977
0.2244,0.0845941744046,-0.0470947287977
0.2246,0.307828801306,-0.0470947287977
0.2248,0.533413266385,-0.0470947287977
0.225,0.571010677231,-0.0470947287977
0.2252,0.571010677231,-0.0470947287977
0.2254,0.571010677231,-0.0470947287977
0.2256,0.571010677231,-0.0470947287977
0.2258,0.646205498924,-0.0470947287977
0.226,0.681453071593,-0.0470947287977
0.2262,0.719050482439,-0.0470947287977
0.2264,0.869440125825,-0.0470947287977
0.2266,1.0950245909,-0.0470947287977
0.2268,1.20546698527,-0.0470947287977
0.227,1.28066180696,-0.0470947287977
0.2272,1.16786957442,-0.0470947287977
0.2274,0.982232358365,-0.0470947287977
0.2276,0.831842714979,-0.0470947287977
0.2278,0.869440125825,-0.0470947287977
0.228,0.944634947518,-0.0470947287977
0.2282,1.01982976921,-0.0470947287977
0.2284,1.13262200175,-0.0470947287977
0.2286,1.0950245909,-0.0470947287977
0.2288,1.01982976921,-0.0470947287977
0.229,1.01982976921,-0.0470947287977
0.2292,1.01982976921,-0.0470947287977
0.2294,0.907037536672,-0.0470947287977
0.2296,0.831842714979,-0.0470947287977
0.2298,0.831842714979,-0.0470947287977
0.23,0.907037536672,-0.0470947287977
0.2302,1.0950245909,-0.0470947287977
0.2304,1.28066180696,-0.0470947287977
0.2306,1.28066180696,-0.0470947287977
0.2308,1.16786957442,-0.0470947287977
0.231,1.01982976921,-0.0470947287977
0.2312,0.982232358365,-0.0470947287977
0.2314,1.01982976921,-0.0470947287977
0.2316,1.0950245909,-0.0470947287977
0.2318,1.13262200175,-0.0470947287977
0.232,1.16786957442,-0.0470947287977
0.2322,1.16786957442,-0.0470947287977
0.2324,1.13262200175,-0.0470947287977
0.2326,1.0950245909,-0.0470947287977
0.2328,1.01982976921,-0.0470947287977
0.233,0.831842714979,-0.0470947287977
0.2332,0.571010677231,-0.0470947287977
0.2334,0.495815855538,-0.0470947287977
0.2336,0.495815855538,-0.0470947287977
0.2338,0.608608088078,-0.0470947287977
0.234,0.681453071593,-0.0470947287977
0.2342,0.608608088078,-0.0470947287977
0.2344,0.420621033845,-0.0470947287977
0.2346,0.232633979613,-0.0470947287977
0.2348,0.122191585251,-0.0470947287977
0.235,0.0469967635581,-0.0470947287977
0.2352,-0.0281980581349,-0.0470947287977
0.2354,0.00939935271163,-0.0470947287977
0.2356,0.00939935271163,-0.0470947287977
0.2358,0.0845941744046,-0.0470947287977
0.236,0.195036568766,-0.0470947287977
0.2362,0.232633979613,-0.0470947287977
0.2364,0.122191585251,-0.0470947287977
0.2366,-0.0281980581349,-0.0470947287977
0.2368,-0.29137993406,-0.0470947287977
0.237,-0.328977344907,-0.0470947287977
0.2372,-0.216185112367,-0.0470947287977
0.2374,-0.103392879828,-0.0470947287977
0.2376,-0.0281980581349,-0.0470947287977
0.2378,-0.0281980581349,-0.0470947287977
0.238,-0.140990290674,-0.0470947287977
0.2382,-0.29137993406,-0.0470947287977
0.2384,-0.364224917575,-0.0470947287977
0.2386,-0.552211971808,-0.0470947287977
0.2388,-0.702601615194,-0.0470947287977
0.239,-0.777796436887,-0.0470947287977
0.2392,-0.815393847734,-0.0470947287977
0.2394,-0.740199026041,-0.0470947287977
0.2396,-0.627406793501,-0.0470947287977
0.2398,-0.589809382654,-0.0470947287977
0.24,-0.665004204347,-0.0470947287977
0.2402,-0.925836242095,-0.0470947287977
0.2404,-1.11382329633,-0.0470947287977
0.2406,-1.18901811802,-0.0470947287977
0.2408,-1.18901811802,-0.0470947287977
0.241,-1.11382329633,-0.0470947287977
0.2412,-1.00103106379,-0.0470947287977
0.2414,-0.925836242095,-0.0470947287977
0.2416,-0.815393847734,-0.0470947287977
0.2418,-0.777796436887,-0.0470947287977
0.242,-0.777796436887,-0.0470947287977
0.2422,-0.888238831249,-0.0470947287977
0.2424,-1.07622588548,-0.0470947287977
0.2426,-1.15142070717,-0.0470947287977
0.2428,-1.15142070717,-0.0470947287977
0.243,-0.963433652942,-0.0470947287977
0.2432,-0.777796436887,-0.0470947287977
0.2434,-0.627406793501,-0.0470947287977
0.2436,-0.665004204347,-0.0470947287977
0.2438,-0.815393847734,-0.0470947287977
0.244,-0.925836242095,-0.0470947287977
0.2442,-1.00103106379,-0.0470947287977
0.2444,-1.11382329633,-0.0470947287977
0.2446,-1.11382329633,-0.0470947287977
0.2448,-1.11382329633,-0.0470947287977
0.245,-1.07622588548,-0.0470947287977
0.2452,-0.925836242095,-0.0470947287977
0.2454,-0.815393847734,-0.0470947287977
0.2456,-0.777796436887,-0.0470947287977
0.2458,-0.815393847734,-0.0470947287977
0.246,-0.963433652942,-0.0470947287977
0.2462,-1.11382329633,-0.0470947287977
0.2464,-1.11382329633,-0.0470947287977
0.2466,-0.963433652942,-0.0470947287977
0.2468,-0.777796436887,-0.0470947287977
0.247,-0.627406793501,-0.0470947287977
0.2472,-0.514614560961,-0.0470947287977
0.2474,-0.477017150115,-0.0470947287977
0.2476,-0.439419739268,-0.0470947287977
0.2478,-0.439419739268,-0.0470947287977
0.248,-0.477017150115,-0.0470947287977
0.2482,-0.514614560961,-0.0470947287977
0.2484,-0.514614560961,-0.0470947287977
0.2486,-0.401822328422,-0.0470947287977
0.2488,-0.253782523214,-0.0470947287977
0.249,-0.0657954689814,-0.0470947287977
0.2492,0.0469967635581,-0.0470947287977
0.2494,0.00939935271163,-0.0470947287977
0.2496,-0.103392879828,-0.0470947287977
0.2498,-0.253782523214,-0.0470947287977
0.25,-0.253782523214,-0.0470947287977
0.2502,-0.178587701521,-0.0470947287977
0.2504,-0.0281980581349,-0.0470947287977
0.2506,0.00939935271163,-0.0470947287977
0.2508,0.122191585251,-0.0470947287977
0.251,0.195036568766,-0.0470947287977
0.2512,0.270231390459,-0.0470947287977
0.2514,0.270231390459,-0.0470947287977
0.2516,0.270231390459,-0.0470947287977
0.2518,0.195036568766,-0.0470947287977
0.252,0.195036568766,-0.0470947287977
0.2522,0.307828801306,-0.0470947287977
0.2524,0.533413266385,-0.0470947287977
0.2526,0.756647893286,-0.0470947287977
0.2528,0.907037536672,-0.0470947287977
0.253,0.982232358365,-0.0470947287977
0.2532,0.907037536672,-0.0470947287977
0.2534,0.831842714979,-0.0470947287977
0.2536,0.831842714979,-0.0470947287977
0.2538,0.869440125825,-0.0470947287977
0.254,0.944634947518,-0.0470947287977
0.2542,1.05742718006,-0.0470947287977
0.2544,1.16786957442,-0.0470947287977
0.2546,1.31825921781,-0.0470947287977
0.2548,1.3934540395,-0.0470947287977
0.255,1.43105145034,-0.0470947287977
0.2552,1.31825921781,-0.0470947287977
0.2554,1.16786957442,-0.0470947287977
0.2556,1.05742718006,-0.0470947287977
0.2558,1.0950245909,-0.0470947287977
0.256,1.20546698527,-0.0470947287977
0.2562,1.3934540395,-0.0470947287977
0.2564,1.46864886119,-0.0470947287977
0.2566,1.46864886119,-0.0470947287977
0.2568,1.43105145034,-0.0470947287977
0.257,1.35585662865,-0.0470947287977
0.2572,1.31825921781,-0.0470947287977
0.2574,1.24306439611,-0.0470947287977
0.2576,1.16786957442,-0.0470947287977
0.2578,1.16786957442,-0.0470947287977
0.258,1.28066180696,-0.0470947287977
0.2582,1.43105145034,-0.0470947287977
0.2584,1.58144109373,-0.0470947287977
0.2586,1.61903850458,-0.0470947287977
0.2588,1.50624627204,-0.0470947287977
0.259,1.35585662865,-0.0470947287977
0.2592,1.24306439611,-0.0470947287977
0.2594,1.20546698527,-0.0470947287977
0.2596,1.28066180696,-0.0470947287977
0.2598,1.31825921781,-0.0470947287977
0.26,1.35585662865,-0.0470947287977
0.2602,1.31825921781,-0.0470947287977
0.2604,1.28066180696,-0.0470947287977
0.2606,1.28066180696,-0.0470947287977
0.2608,1.13262200175,-0.0470947287977
0.261,0.944634947518,-0.0470947287977
0.2612,0.719050482439,-0.0470947287977
0.2614,0.571010677231,-0.0470947287977
0.2616,0.571010677231,-0.0470947287977
0.2618,0.608608088078,-0.0470947287977
0.262,0.646205498924,-0.0470947287977
0.2622,0.646205498924,-0.0470947287977
0.2624,0.495815855538,-0.0470947287977
0.2626,0.270231390459,-0.0470947287977
0.2628,0.122191585251,-0.0470947287977
0.263,0.00939935271163,-0.0470947287977
0.2632,-0.0281980581349,-0.0470947287977
0.2634,-0.0657954689814,-0.0470947287977
0.2636,-0.0657954689814,-0.0470947287977
0.2638,-0.0657954689814,-0.0470947287977
0.264,-0.0281980581349,-0.0470947287977
0.2642,0.00939935271163,-0.0470947287977
0.2644,-0.103392879828,-0.0470947287977
0.2646,-0.328977344907,-0.0470947287977
0.2648,-0.477017150115,-0.0470947287977
0.265,-0.627406793501,-0.0470947287977
0.2652,-0.665004204347,-0.0470947287977
0.2654,-0.589809382654,-0.0470947287977
0.2656,-0.514614560961,-0.0470947287977
0.2658,-0.514614560961,-0.0470947287977
0.266,-0.627406793501,-0.0470947287977
0.2662,-0.815393847734,-0.0470947287977
0.2664,-0.963433652942,-0.0470947287977
0.2666,-1.07622588548,-0.0470947287977
0.2668,-1.22661552887,-0.0470947287977
0.267,-1.33705792323,-0.0470947287977
0.2672,-1.37465533408,-0.0470947287977
0.2674,-1.37465533408,-0.0470947287977
0.2676,-1.30181035056,-0.0470947287977
0.2678,-1.26421293971,-0.0470947287977
0.268,-1.37465533408,-0.0470947287977
0.2682,-1.52504497746,-0.0470947287977
0.2684,-1.71303203169,-0.0470947287977
0.2686,-1.78822685339,-0.0470947287977
0.2688,-1.82347442606,-0.0470947287977
0.269,-1.78822685339,-0.0470947287977
0.2692,-1.67543462085,-0.0470947287977
0.2694,-1.60023979915,-0.0470947287977
0.2696,-1.56264238831,-0.0470947287977
0.2698,-1.56264238831,-0.0470947287977
0.27,-1.60023979915,-0.0470947287977
0.2702,-1.63783721,-0.0470947287977
0.2704,-1.75062944254,-0.0470947287977
0.2706,-1.82347442606,-0.0470947287977
0.2708,-1.8610718369,-0.0470947287977
0.271,-1.71303203169,-0.0470947287977
0.2712,-1.52504497746,-0.0470947287977
0.2714,-1.41225274492,-0.0470947287977
0.2716,-1.41225274492,-0.0470947287977
0.2718,-1.52504497746,-0.0470947287977
0.272,-1.63783721,-0.0470947287977
0.2722,-1.71303203169,-0.0470947287977
0.2724,-1.78822685339,-0.0470947287977
0.2726,-1.78822685339,-0.0470947287977
0.2728,-1.71303203169,-0.0470947287977
0.273,-1.63783721,-0.0470947287977
0.2732,-1.52504497746,-0.0470947287977
0.2734,-1.44985015577,-0.0470947287977
0.2736,-1.37465533408,-0.0470947287977
0.2738,-1.41225274492,-0.0470947287977
0.274,-1.52504497746,-0.0470947287977
0.2742,-1.60023979915,-0.0470947287977
0.2744,-1.52504497746,-0.0470947287977
0.2746,-1.41225274492,-0.0470947287977
0.2748,-1.22661552887,-0.0470947287977
0.275,-1.00103106379,-0.0470947287977
0.2752,-0.925836242095,-0.0470947287977
0.2754,-0.850641420402,-0.0470947287977
0.2756,-0.815393847734,-0.0470947287977
0.2758,-0.815393847734,-0.0470947287977
0.276,-0.815393847734,-0.0470947287977
0.2762,-0.777796436887,-0.0470947287977
0.2764,-0.665004204347,-0.0470947287977
0.2766,-0.589809382654,-0.0470947287977
0.2768,-0.401822328422,-0.0470947287977
0.277,-0.216185112367,-0.0470947287977
0.2772,-0.103392879828,-0.0470947287977
0.2774,-0.103392879828,-0.0470947287977
0.2776,-0.178587701521,-0.0470947287977
0.2778,-0.216185112367,-0.0470947287977
0.278,-0.253782523214,-0.0470947287977
0.2782,-0.178587701521,-0.0470947287977
0.2784,-0.0281980581349,-0.0470947287977
0.2786,0.122191585251,-0.0470947287977
0.2788,0.232633979613,-0.0470947287977
0.279,0.307828801306,-0.0470947287977
0.2792,0.420621033845,-0.0470947287977
0.2794,0.420621033845,-0.0470947287977
0.2796,0.420621033845,-0.0470947287977
0.2798,0.458218444692,-0.0470947287977
0.28,0.458218444692,-0.0470947287977
0.2802,0.571010677231,-0.0470947287977
0.2804,0.756647893286,-0.0470947287977
0.2806,1.01982976921,-0.0470947287977
0.2808,1.16786957442,-0.0470947287977
0.281,1.28066180696,-0.0470947287977
0.2812,1.20546698527,-0.0470947287977
0.2814,1.20546698527,-0.0470947287977
0.2816,1.24306439611,-0.0470947287977
0.2818,1.28066180696,-0.0470947287977
0.282,1.3934540395,-0.0470947287977
0.2822,1.50624627204,-0.0470947287977
0.2824,1.61903850458,-0.0470947287977
0.2826,1.76707830979,-0.0470947287977
0.2828,1.87987054233,-0.0470947287977
0.283,1.87987054233,-0.0470947287977
0.2832,1.84227313148,-0.0470947287977
0.2834,1.76707830979,-0.0470947287977
0.2836,1.69188348809,-0.0470947287977
0.2838,1.69188348809,-0.0470947287977
0.284,1.87987054233,-0.0470947287977
0.2842,2.03026018571,-0.0470947287977
0.2844,2.17829999092,-0.0470947287977
0.2846,2.17829999092,-0.0470947287977
0.2848,2.17829999092,-0.0470947287977
0.285,2.14070258007,-0.0470947287977
0.2852,2.1054550074,-0.0470947287977
0.2854,2.06785759656,-0.0470947287977
0.2856,2.06785759656,-0.0470947287977
0.2858,2.1054550074,-0.0470947287977
0.286,2.21589740177,-0.0470947287977
0.2862,2.44148186684,-0.0470947287977
0.2864,2.59187151023,-0.0470947287977
0.2866,2.59187151023,-0.0470947287977
0.2868,2.51667668854,-0.0470947287977
0.287,2.36628704515,-0.0470947287977
0.2872,2.1054550074,-0.0470947287977
0.2874,2.06785759656,-0.0470947287977
0.2876,2.1054550074,-0.0470947287977
0.2878,2.21589740177,-0.0470947287977
0.288,2.36628704515,-0.0470947287977
0.2882,2.21589740177,-0.0470947287977
0.2884,2.21589740177,-0.0470947287977
0.2886,2.1054550074,-0.0470947287977
0.2888,1.95506536402,-0.0470947287977
0.289,1.76707830979,-0.0470947287977
0.2892,1.61903850458,-0.0470947287977
0.2894,1.50624627204,-0.0470947287977
0.2896,1.50624627204,-0.0470947287977
0.2898,1.58144109373,-0.0470947287977
0.29,1.61903850458,-0.0470947287977
0.2902,1.61903850458,-0.0470947287977
0.2904,1.46864886119,-0.0470947287977
0.2906,1.28066180696,-0.0470947287977
0.2908,1.0950245909,-0.0470947287977
0.291,0.907037536672,-0.0470947287977
0.2912,0.869440125825,-0.0470947287977
0.2914,0.869440125825,-0.0470947287977
0.2916,0.831842714979,-0.0470947287977
0.2918,0.869440125825,-0.0470947287977
0.292,0.869440125825,-0.0470947287977
0.2922,0.794245304132,-0.0470947287977
0.2924,0.608608088078,-0.0470947287977
0.2926,0.383023622999,-0.0470947287977
0.2928,0.122191585251,-0.0470947287977
0.293,-0.0657954689814,-0.0470947287977
0.2932,-0.178587701521,-0.0470947287977
0.2934,-0.178587701521,-0.0470947287977
0.2936,-0.103392879828,-0.0470947287977
0.2938,-0.103392879828,-0.0470947287977
0.294,-0.216185112367,-0.0470947287977
0.2942,-0.401822328422,-0.0470947287977
0.2944,-0.589809382654,-0.0470947287977
0.2946,-0.777796436887,-0.0470947287977
0.2948,-0.963433652942,-0.0470947287977
0.295,-1.11382329633,-0.0470947287977
0.2952,-1.18901811802,-0.0470947287977
0.2954,-1.18901811802,-0.0470947287977
0.2956,-1.18901811802,-0.0470947287977
0.2958,-1.15142070717,-0.0470947287977
0.296,-1.22661552887,-0.0470947287977
0.2962,-1.41225274492,-0.0470947287977
0.2964,-1.63783721,-0.0470947287977
0.2966,-1.8610718369,-0.0470947287977
0.2968,-1.97386406944,-0.0470947287977
0.297,-1.97386406944,-0.0470947287977
0.2972,-1.93626665859,-0.0470947287977
0.2974,-1.89866924775,-0.0470947287977
0.2976,-1.97386406944,-0.0470947287977
0.2978,-2.04905889113,-0.0470947287977
0.298,-2.12425371283,-0.0470947287977
0.2982,-2.27464335621,-0.0470947287977
0.2984,-2.46028057227,-0.0470947287977
0.2986,-2.57307280481,-0.0470947287977
0.2988,-2.6482676265,-0.0470947287977
0.299,-2.61067021565,-0.0470947287977
0.2992,-2.46028057227,-0.0470947287977
0.2994,-2.38508575057,-0.0470947287977
0.2996,-2.34748833973,-0.0470947287977
0.2998,-2.42268316142,-0.0470947287977
0.3,-2.61067021565,-0.0470947287977
0.3002,-2.76105985904,-0.0470947287977
0.3004,-2.83390484256,-0.0470947287977
0.3006,-2.79630743171,-0.0470947287977
0.3008,-2.72346244819,-0.0470947287977
0.301,-2.68586503735,-0.0470947287977
0.3012,-2.6482676265,-0.0470947287977
0.3014,-2.57307280481,-0.0470947287977
0.3016,-2.49787798311,-0.0470947287977
0.3018,-2.57307280481,-0.0470947287977
0.302,-2.6482676265,-0.0470947287977
0.3022,-2.72346244819,-0.0470947287977
0.3024,-2.72346244819,-0.0470947287977
0.3026,-2.68586503735,-0.0470947287977
0.3028,-2.53547539396,-0.0470947287977
0.303,-2.30989092888,-0.0470947287977
0.3032,-2.19944853452,-0.0470947287977
0.3034,-2.16185112367,-0.0470947287977
0.3036,-2.23704594537,-0.0470947287977
0.3038,-2.27464335621,-0.0470947287977
0.304,-2.23704594537,-0.0470947287977
0.3042,-2.19944853452,-0.0470947287977
0.3044,-2.12425371283,-0.0470947287977
0.3046,-2.01146148029,-0.0470947287977
0.3048,-1.82347442606,-0.0470947287977
0.305,-1.63783721,-0.0470947287977
0.3052,-1.52504497746,-0.0470947287977
0.3054,-1.44985015577,-0.0470947287977
0.3056,-1.44985015577,-0.0470947287977
0.3058,-1.48744756661,-0.0470947287977
0.306,-1.44985015577,-0.0470947287977
0.3062,-1.33705792323,-0.0470947287977
0.3064,-1.15142070717,-0.0470947287977
0.3066,-0.925836242095,-0.0470947287977
0.3068,-0.777796436887,-0.0470947287977
0.307,-0.627406793501,-0.0470947287977
0.3072,-0.589809382654,-0.0470947287977
0.3074,-0.514614560961,-0.0470947287977
0.3076,-0.514614560961,-0.0470947287977
0.3078,-0.477017150115,-0.0470947287977
0.308,-0.401822328422,-0.0470947287977
0.3082,-0.29137993406,-0.0470947287977
0.3084,-0.0281980581349,-0.0470947287977
0.3086,0.15743915792,-0.0470947287977
0.3088,0.345426212152,-0.0470947287977
0.309,0.420621033845,-0.0470947287977
0.3092,0.495815855538,-0.0470947287977
0.3094,0.495815855538,-0.0470947287977
0.3096,0.495815855538,-0.0470947287977
0.3098,0.608608088078,-0.0470947287977
0.31,0.794245304132,-0.0470947287977
0.3102,0.982232358365,-0.0470947287977
0.3104,1.13262200175,-0.0470947287977
0.3106,1.31825921781,-0.0470947287977
0.3108,1.43105145034,-0.0470947287977
0.311,1.54384368288,-0.0470947287977
0.3112,1.58144109373,-0.0470947287977
0.3114,1.58144109373,-0.0470947287977
0.3116,1.58144109373,-0.0470947287977
0.3118,1.65428607725,-0.0470947287977
0.312,1.84227313148,-0.0470947287977
0.3122,2.03026018571,-0.0470947287977
0.3124,2.21589740177,-0.0470947287977
0.3126,2.403884456,-0.0470947287977
0.3128,2.44148186684,-0.0470947287977
0.313,2.36628704515,-0.0470947287977
0.3132,2.25349481261,-0.0470947287977
0.3134,2.36628704515,-0.0470947287977
0.3136,2.403884456,-0.0470947287977
0.3138,2.51667668854,-0.0470947287977
0.314,2.6271190829,-0.0470947287977
0.3142,2.81510613713,-0.0470947287977
0.3144,2.92789836967,-0.0470947287977
0.3146,2.96549578052,-0.0470947287977
0.3148,2.96549578052,-0.0470947287977
0.315,2.89030095882,-0.0470947287977
0.3152,2.77750872629,-0.0470947287977
0.3154,2.81510613713,-0.0470947287977
0.3156,2.85270354798,-0.0470947287977
0.3158,2.96549578052,-0.0470947287977
0.316,3.11353558573,-0.0470947287977
0.3162,3.18873040742,-0.0470947287977
0.3164,3.18873040742,-0.0470947287977
0.3166,3.11353558573,-0.0470947287977
0.3168,3.04069060221,-0.0470947287977
0.317,2.96549578052,-0.0470947287977
0.3172,2.89030095882,-0.0470947287977
0.3174,2.85270354798,-0.0470947287977
0.3176,2.89030095882,-0.0470947287977
0.3178,2.92789836967,-0.0470947287977
0.318,3.00309319136,-0.0470947287977
0.3182,3.00309319136,-0.0470947287977
0.3184,2.92789836967,-0.0470947287977
0.3186,2.77750872629,-0.0470947287977
0.3188,2.59187151023,-0.0470947287977
0.319,2.47907927769,-0.0470947287977
0.3192,2.36628704515,-0.0470947287977
0.3194,2.36628704515,-0.0470947287977
0.3196,2.36628704515,-0.0470947287977
0.3198,2.403884456,-0.0470947287977
0.32,2.25349481261,-0.0470947287977
0.3202,2.14070258007,-0.0470947287977
0.3204,2.03026018571,-0.0470947287977
0.3206,1.87987054233,-0.0470947287977
0.3208,1.65428607725,-0.0470947287977
0.321,1.50624627204,-0.0470947287977
0.3212,1.3934540395,-0.0470947287977
0.3214,1.3934540395,-0.0470947287977
0.3216,1.3934540395,-0.0470947287977
0.3218,1.3934540395,-0.0470947287977
0.322,1.28066180696,-0.0470947287977
0.3222,1.16786957442,-0.0470947287977
0.3224,1.01982976921,-0.0470947287977
0.3226,0.794245304132,-0.0470947287977
0.3228,0.608608088078,-0.0470947287977
0.323,0.533413266385,-0.0470947287977
0.3232,0.420621033845,-0.0470947287977
0.3234,0.383023622999,-0.0470947287977
0.3236,0.345426212152,-0.0470947287977
0.3238,0.270231390459,-0.0470947287977
0.324,0.195036568766,-0.0470947287977
0.3242,0.00939935271163,-0.0470947287977
0.3244,-0.216185112367,-0.0470947287977
0.3246,-0.514614560961,-0.0470947287977
0.3248,-0.665004204347,-0.0470947287977
0.325,-0.777796436887,-0.0470947287977
0.3252,-0.815393847734,-0.0470947287977
0.3254,-0.888238831249,-0.0470947287977
0.3256,-0.963433652942,-0.0470947287977
0.3258,-1.03862847463,-0.0470947287977
0.326,-1.18901811802,-0.0470947287977
0.3262,-1.37465533408,-0.0470947287977
0.3264,-1.52504497746,-0.0470947287977
0.3266,-1.67543462085,-0.0470947287977
0.3268,-1.75062944254,-0.0470947287977
0.327,-1.82347442606,-0.0470947287977
0.3272,-1.82347442606,-0.0470947287977
0.3274,-1.82347442606,-0.0470947287977
0.3276,-1.82347442606,-0.0470947287977
0.3278,-1.93626665859,-0.0470947287977
0.328,-2.12425371283,-0.0470947287977
0.3282,-2.30989092888,-0.0470947287977
0.3284,-2.42268316142,-0.0470947287977
0.3286,-2.49787798311,-0.0470947287977
0.3288,-2.53547539396,-0.0470947287977
0.329,-2.57307280481,-0.0470947287977
0.3292,-2.57307280481,-0.0470947287977
0.3294,-2.61067021565,-0.0470947287977
0.3296,-2.72346244819,-0.0470947287977
0.3298,-2.79630743171,-0.0470947287977
0.33,-2.98429448594,-0.0470947287977
0.3302,-3.09708671848,-0.0470947287977
0.3304,-3.17228154017,-0.0470947287977
0.3306,-3.20987895102,-0.0470947287977
0.3308,-3.17228154017,-0.0470947287977
0.331,-3.05948930763,-0.0470947287977
0.3312,-3.02189189679,-0.0470947287977
0.3314,-3.02189189679,-0.0470947287977
0.3316,-3.09708671848,-0.0470947287977
0.3318,-3.17228154017,-0.0470947287977
0.332,-3.24747636187,-0.0470947287977
0.3322,-3.24747636187,-0.0470947287977
0.3324,-3.20987895102,-0.0470947287977
0.3326,-3.09708671848,-0.0470947287977
0.3328,-2.98429448594,-0.0470947287977
0.333,-2.8715022534,-0.0470947287977
0.3332,-2.76105985904,-0.0470947287977
0.3334,-2.76105985904,-0.0470947287977
0.3336,-2.79630743171,-0.0470947287977
0.3338,-2.8715022534,-0.0470947287977
0.334,-2.90909966425,-0.0470947287977
0.3342,-2.8715022534,-0.0470947287977
0.3344,-2.72346244819,-0.0470947287977
0.3346,-2.57307280481,-0.0470947287977
0.3348,-2.38508575057,-0.0470947287977
0.335,-2.30989092888,-0.0470947287977
0.3352,-2.27464335621,-0.0470947287977
0.3354,-2.27464335621,-0.0470947287977
0.3356,-2.27464335621,-0.0470947287977
0.3358,-2.27464335621,-0.0470947287977
0.336,-2.23704594537,-0.0470947287977
0.3362,-2.12425371283,-0.0470947287977
0.3364,-1.93626665859,-0.0470947287977
0.3366,-1.75062944254,-0.0470947287977
0.3368,-1.56264238831,-0.0470947287977
0.337,-1.41225274492,-0.0470947287977
0.3372,-1.33705792323,-0.0470947287977
0.3374,-1.33705792323,-0.0470947287977
0.3376,-1.30181035056,-0.0470947287977
0.3378,-1.18901811802,-0.0470947287977
0.338,-1.03862847463,-0.0470947287977
0.3382,-0.815393847734,-0.0470947287977
0.3384,-0.627406793501,-0.0470947287977
0.3386,-0.401822328422,-0.0470947287977
0.3388,-0.253782523214,-0.0470947287977
0.339,-0.178587701521,-0.0470947287977
0.3392,-0.103392879828,-0.0470947287977
0.3394,-0.0281980581349,-0.0470947287977
0.3396,-0.0281980581349,-0.0470947287977
0.3398,0.122191585251,-0.0470947287977
0.34,0.270231390459,-0.0470947287977
0.3402,0.458218444692,-0.0470947287977
0.3404,0.646205498924,-0.0470947287977
0.3406,0.869440125825,-0.0470947287977
0.3408,0.907037536672,-0.0470947287977
0.341,0.944634947518,-0.0470947287977
0.3412,0.944634947518,-0.0470947287977
0.3414,0.982232358365,-0.0470947287977
0.3416,1.0950245909,-0.0470947287977
0.3418,1.24306439611,-0.0470947287977
0.342,1.43105145034,-0.0470947287977
0.3422,1.61903850458,-0.0470947287977
0.3424,1.76707830979,-0.0470947287977
0.3426,1.87987054233,-0.0470947287977
0.3428,1.91746795317,-0.0470947287977
0.343,1.95506536402,-0.0470947287977
0.3432,1.99266277486,-0.0470947287977
0.3434,2.03026018571,-0.0470947287977
0.3436,2.14070258007,-0.0470947287977
0.3438,2.403884456,-0.0470947287977
0.344,2.59187151023,-0.0470947287977
0.3442,2.77750872629,-0.0470947287977
0.3444,2.89030095882,-0.0470947287977
0.3446,2.89030095882,-0.0470947287977
0.3448,2.85270354798,-0.0470947287977
0.345,2.85270354798,-0.0470947287977
0.3452,2.81510613713,-0.0470947287977
0.3454,2.89030095882,-0.0470947287977
0.3456,2.96549578052,-0.0470947287977
0.3458,3.07828801306,-0.0470947287977
0.346,3.11353558573,-0.0470947287977
0.3462,3.18873040742,-0.0470947287977
0.3464,3.22632781827,-0.0470947287977
0.3466,3.11353558573,-0.0470947287977
0.3468,3.04069060221,-0.0470947287977
0.347,2.96549578052,-0.0470947287977
0.3472,2.92789836967,-0.0470947287977
0.3474,2.96549578052,-0.0470947287977
0.3476,3.04069060221,-0.0470947287977
0.3478,3.11353558573,-0.0470947287977
0.348,3.15113299657,-0.0470947287977
0.3482,3.11353558573,-0.0470947287977
0.3484,3.07828801306,-0.0470947287977
0.3486,2.96549578052,-0.0470947287977
0.3488,2.89030095882,-0.0470947287977
0.349,2.77750872629,-0.0470947287977
0.3492,2.77750872629,-0.0470947287977
0.3494,2.81510613713,-0.0470947287977
0.3496,2.89030095882,-0.0470947287977
0.3498,2.92789836967,-0.0470947287977
0.35,2.92789836967,-0.0470947287977
0.3502,2.81510613713,-0.0470947287977
0.3504,2.6271190829,-0.0470947287977
0.3506,2.47907927769,-0.0470947287977
0.3508,2.21589740177,-0.0470947287977
0.351,2.17829999092,-0.0470947287977
0.3512,2.1054550074,-0.0470947287977
0.3514,2.06785759656,-0.0470947287977
0.3516,2.06785759656,-0.0470947287977
0.3518,1.99266277486,-0.0470947287977
0.352,1.87987054233,-0.0470947287977
0.3522,1.72948089894,-0.0470947287977
0.3524,1.50624627204,-0.0470947287977
0.3526,1.31825921781,-0.0470947287977
0.3528,1.16786957442,-0.0470947287977
0.353,1.0950245909,-0.0470947287977
0.3532,1.0950245909,-0.0470947287977
0.3534,1.01982976921,-0.0470947287977
0.3536,0.944634947518,-0.0470947287977
0.3538,0.831842714979,-0.0470947287977
0.354,0.681453071593,-0.0470947287977
0.3542,0.495815855538,-0.0470947287977
0.3544,0.307828801306,-0.0470947287977
0.3546,0.195036568766,-0.0470947287977
0.3548,0.122191585251,-0.0470947287977
0.355,0.0845941744046,-0.0470947287977
0.3552,0.0469967635581,-0.0470947287977
0.3554,0.00939935271163,-0.0470947287977
0.3556,-0.0657954689814,-0.0470947287977
0.3558,-0.216185112367,-0.0470947287977
0.356,-0.401822328422,-0.0470947287977
0.3562,-0.627406793501,-0.0470947287977
0.3564,-0.777796436887,-0.0470947287977
0.3566,-0.888238831249,-0.0470947287977
0.3568,-0.925836242095,-0.0470947287977
0.357,-0.925836242095,-0.0470947287977
0.3572,-1.03862847463,-0.0470947287977
0.3574,-1.15142070717,-0.0470947287977
0.3576,-1.33705792323,-0.0470947287977
0.3578,-1.52504497746,-0.0470947287977
0.358,-1.71303203169,-0.0470947287977
0.3582,-1.89866924775,-0.0470947287977
0.3584,-1.97386406944,-0.0470947287977
0.3586,-2.04905889113,-0.0470947287977
0.3588,-2.04905889113,-0.0470947287977
0.359,-2.04905889113,-0.0470947287977
0.3592,-2.08665630198,-0.0470947287977
0.3594,-2.12425371283,-0.0470947287977
0.3596,-2.27464335621,-0.0470947287977
0.3598,-2.42268316142,-0.0470947287977
0.36,-2.57307280481,-0.0470947287977
0.3602,-2.68586503735,-0.0470947287977
0.3604,-2.61067021565,-0.0470947287977
0.3606,-2.57307280481,-0.0470947287977
0.3608,-2.57307280481,-0.0470947287977
0.361,-2.57307280481,-0.0470947287977
0.3612,-2.57307280481,-0.0470947287977
0.3614,-2.6482676265,-0.0470947287977
0.3616,-2.79630743171,-0.0470947287977
0.3618,-2.90909966425,-0.0470947287977
0.362,-3.02189189679,-0.0470947287977
0.3622,-3.02189189679,-0.0470947287977
0.3624,-3.02189189679,-0.0470947287977
0.3626,-2.94669707509,-0.0470947287977
0.3628,-2.8715022534,-0.0470947287977
0.363,-2.8715022534,-0.0470947287977
0.3632,-2.90909966425,-0.0470947287977
0.3634,-3.02189189679,-0.0470947287977
0.3636,-3.09708671848,-0.0470947287977
0.3638,-3.13468412933,-0.0470947287977
0.364,-3.09708671848,-0.0470947287977
0.3642,-3.02189189679,-0.0470947287977
0.3644,-2.90909966425,-0.0470947287977
0.3646,-2.79630743171,-0.0470947287977
0.3648,-2.68586503735,-0.0470947287977
0.365,-2.61067021565,-0.0470947287977
0.3652,-2.57307280481,-0.0470947287977
0.3654,-2.61067021565,-0.0470947287977
0.3656,-2.6482676265,-0.0470947287977
0.3658,-2.61067021565,-0.0470947287977
0.366,-2.49787798311,-0.0470947287977
0.3662,-2.30989092888,-0.0470947287977
0.3664,-2.12425371283,-0.0470947287977
0.3666,-1.93626665859,-0.0470947287977
0.3668,-1.8610718369,-0.0470947287977
0.367,-1.8610718369,-0.0470947287977
0.3672,-1.8610718369,-0.0470947287977
0.3674,-1.8610718369,-0.0470947287977
0.3676,-1.82347442606,-0.0470947287977
0.3678,-1.78822685339,-0.0470947287977
0.368,-1.60023979915,-0.0470947287977
0.3682,-1.44985015577,-0.0470947287977
0.3684,-1.26421293971,-0.0470947287977
0.3686,-1.11382329633,-0.0470947287977
0.3688,-1.03862847463,-0.0470947287977
0.369,-1.03862847463,-0.0470947287977
0.3692,-1.00103106379,-0.0470947287977
0.3694,-0.963433652942,-0.0470947287977
0.3696,-0.888238831249,-0.0470947287977
0.3698,-0.702601615194,-0.0470947287977
0.37,-0.477017150115,-0.0470947287977
0.3702,-0.253782523214,-0.0470947287977
0.3704,-0.0657954689814,-0.0470947287977
0.3706,0.00939935271163,-0.0470947287977
0.3708,0.122191585251,-0.0470947287977
0.371,0.195036568766,-0.0470947287977
0.3712,0.232633979613,-0.0470947287977
0.3714,0.307828801306,-0.0470947287977
0.3716,0.458218444692,-0.0470947287977
0.3718,0.646205498924,-0.0470947287977
0.372,0.869440125825,-0.0470947287977
0.3722,1.01982976921,-0.0470947287977
0.3724,1.16786957442,-0.0470947287977
0.3726,1.20546698527,-0.0470947287977
0.3728,1.20546698527,-0.0470947287977
0.373,1.20546698527,-0.0470947287977
0.3732,1.24306439611,-0.0470947287977
0.3734,1.31825921781,-0.0470947287977
0.3736,1.46864886119,-0.0470947287977
0.3738,1.61903850458,-0.0470947287977
0.374,1.76707830979,-0.0470947287977
0.3742,1.87987054233,-0.0470947287977
0.3744,1.95506536402,-0.0470947287977
0.3746,1.99266277486,-0.0470947287977
0.3748,1.95506536402,-0.0470947287977
0.375,1.99266277486,-0.0470947287977
0.3752,1.99266277486,-0.0470947287977
0.3754,2.14070258007,-0.0470947287977
0.3756,2.403884456,-0.0470947287977
0.3758,2.59187151023,-0.0470947287977
0.376,2.66471649375,-0.0470947287977
0.3762,2.77750872629,-0.0470947287977
0.3764,2.77750872629,-0.0470947287977
0.3766,2.70231390459,-0.0470947287977
0.3768,2.66471649375,-0.0470947287977
0.377,2.70231390459,-0.0470947287977
0.3772,2.73991131544,-0.0470947287977
0.3774,2.81510613713,-0.0470947287977
0.3776,2.89030095882,-0.0470947287977
0.3778,2.96549578052,-0.0470947287977
0.378,3.00309319136,-0.0470947287977
0.3782,2.96549578052,-0.0470947287977
0.3784,2.89030095882,-0.0470947287977
0.3786,2.77750872629,-0.0470947287977
0.3788,2.66471649375,-0.0470947287977
0.379,2.66471649375,-0.0470947287977
0.3792,2.70231390459,-0.0470947287977
0.3794,2.77750872629,-0.0470947287977
0.3796,2.81510613713,-0.0470947287977
0.3798,2.77750872629,-0.0470947287977
0.38,2.73991131544,-0.0470947287977
0.3802,2.6271190829,-0.0470947287977
0.3804,2.51667668854,-0.0470947287977
0.3806,2.403884456,-0.0470947287977
0.3808,2.21589740177,-0.0470947287977
0.381,2.17829999092,-0.0470947287977
0.3812,2.21589740177,-0.0470947287977
0.3814,2.403884456,-0.0470947287977
0.3816,2.36628704515,-0.0470947287977
0.3818,2.21589740177,-0.0470947287977
0.382,2.1054550074,-0.0470947287977
0.3822,1.91746795317,-0.0470947287977
0.3824,1.80467572063,-0.0470947287977
0.3826,1.69188348809,-0.0470947287977
0.3828,1.61903850458,-0.0470947287977
0.383,1.61903850458,-0.0470947287977
0.3832,1.61903850458,-0.0470947287977
0.3834,1.58144109373,-0.0470947287977
0.3836,1.50624627204,-0.0470947287977
0.3838,1.3934540395,-0.0470947287977
0.384,1.20546698527,-0.0470947287977
0.3842,1.01982976921,-0.0470947287977
0.3844,0.831842714979,-0.0470947287977
0.3846,0.681453071593,-0.0470947287977
0.3848,0.681453071593,-0.0470947287977
0.385,0.646205498924,-0.0470947287977
0.3852,0.608608088078,-0.0470947287977
0.3854,0.571010677231,-0.0470947287977
0.3856,0.420621033845,-0.0470947287977
0.3858,0.195036568766,-0.0470947287977
0.386,-0.0281980581349,-0.0470947287977
0.3862,-0.178587701521,-0.0470947287977
0.3864,-0.29137993406,-0.0470947287977
0.3866,-0.328977344907,-0.0470947287977
0.3868,-0.328977344907,-0.0470947287977
0.387,-0.328977344907,-0.0470947287977
0.3872,-0.364224917575,-0.0470947287977
0.3874,-0.439419739268,-0.0470947287977
0.3876,-0.589809382654,-0.0470947287977
0.3878,-0.777796436887,-0.0470947287977
0.388,-0.963433652942,-0.0470947287977
0.3882,-1.11382329633,-0.0470947287977
0.3884,-1.15142070717,-0.0470947287977
0.3886,-1.15142070717,-0.0470947287977
0.3888,-1.15142070717,-0.0470947287977
0.389,-1.18901811802,-0.0470947287977
0.3892,-1.30181035056,-0.0470947287977
0.3894,-1.48744756661,-0.0470947287977
0.3896,-1.67543462085,-0.0470947287977
0.3898,-1.82347442606,-0.0470947287977
0.39,-1.97386406944,-0.0470947287977
0.3902,-2.08665630198,-0.0470947287977
0.3904,-2.08665630198,-0.0470947287977
0.3906,-2.01146148029,-0.0470947287977
0.3908,-1.97386406944,-0.0470947287977
0.391,-1.97386406944,-0.0470947287977
0.3912,-2.04905889113,-0.0470947287977
0.3914,-2.19944853452,-0.0470947287977
0.3916,-2.34748833973,-0.0470947287977
0.3918,-2.49787798311,-0.0470947287977
0.392,-2.57307280481,-0.0470947287977
0.3922,-2.49787798311,-0.0470947287977
0.3924,-2.38508575057,-0.0470947287977
0.3926,-2.30989092888,-0.0470947287977
0.3928,-2.27464335621,-0.0470947287977
0.393,-2.27464335621,-0.0470947287977
0.3932,-2.30989092888,-0.0470947287977
0.3934,-2.46028057227,-0.0470947287977
0.3936,-2.57307280481,-0.0470947287977
0.3938,-2.68586503735,-0.0470947287977
0.394,-2.68586503735,-0.0470947287977
0.3942,-2.61067021565,-0.0470947287977
0.3944,-2.49787798311,-0.0470947287977
0.3946,-2.34748833973,-0.0470947287977
0.3948,-2.30989092888,-0.0470947287977
0.395,-2.38508575057,-0.0470947287977
0.3952,-2.49787798311,-0.0470947287977
0.3954,-2.57307280481,-0.0470947287977
0.3956,-2.61067021565,-0.0470947287977
0.3958,-2.57307280481,-0.0470947287977
0.396,-2.42268316142,-0.0470947287977
0.3962,-2.27464335621,-0.0470947287977
0.3964,-2.16185112367,-0.0470947287977
0.3966,-2.04905889113,-0.0470947287977
0.3968,-1.93626665859,-0.0470947287977
0.397,-1.89866924775,-0.0470947287977
0.3972,-1.97386406944,-0.0470947287977
0.3974,-1.97386406944,-0.0470947287977
0.3976,-1.93626665859,-0.0470947287977
0.3978,-1.78822685339,-0.0470947287977
0.398,-1.60023979915,-0.0470947287977
0.3982,-1.44985015577,-0.0470947287977
0.3984,-1.30181035056,-0.0470947287977
0.3986,-1.26421293971,-0.0470947287977
0.3988,-1.18901811802,-0.0470947287977
0.399,-1.18901811802,-0.0470947287977
0.3992,-1.18901811802,-0.0470947287977
0.3994,-1.15142070717,-0.0470947287977
0.3996,-1.07622588548,-0.0470947287977
0.3998,-0.963433652942,-0.0470947287977
0.4,-0.777796436887,-0.0470947287977
0.4002,-0.627406793501,-0.0470947287977
0.4004,-0.477017150115,-0.0470947287977
0.4006,-0.401822328422,-0.0470947287977
0.4008,-0.477017150115,-0.0470947287977
0.401,-0.477017150115,-0.0470947287977
0.4012,-0.401822328422,-0.0470947287977
0.4014,-0.29137993406,-0.0470947287977
0.4016,-0.103392879828,-0.0470947287977
0.4018,0.0469967635581,-0.0470947287977
0.402,0.195036568766,-0.0470947287977
0.4022,0.383023622999,-0.0470947287977
0.4024,0.458218444692,-0.0470947287977
0.4026,0.533413266385,-0.0470947287977
0.4028,0.571010677231,-0.0470947287977
0.403,0.608608088078,-0.0470947287977
0.4032,0.681453071593,-0.0470947287977
0.4034,0.794245304132,-0.0470947287977
0.4036,0.982232358365,-0.0470947287977
0.4038,1.16786957442,-0.0470947287977
0.404,1.31825921781,-0.0470947287977
0.4042,1.3934540395,-0.0470947287977
0.4044,1.43105145034,-0.0470947287977
0.4046,1.35585662865,-0.0470947287977
0.4048,1.31825921781,-0.0470947287977
0.405,1.3934540395,-0.0470947287977
0.4052,1.46864886119,-0.0470947287977
0.4054,1.58144109373,-0.0470947287977
0.4056,1.69188348809,-0.0470947287977
0.4058,1.80467572063,-0.0470947287977
0.406,1.87987054233,-0.0470947287977
0.4062,1.91746795317,-0.0470947287977
0.4064,1.91746795317,-0.0470947287977
0.4066,1.84227313148,-0.0470947287977
0.4068,1.80467572063,-0.0470947287977
0.407,1.87987054233,-0.0470947287977
0.4072,1.95506536402,-0.0470947287977
0.4074,2.1054550074,-0.0470947287977
0.4076,2.21589740177,-0.0470947287977
0.4078,2.36628704515,-0.0470947287977
0.408,2.36628704515,-0.0470947287977
0.4082,2.36628704515,-0.0470947287977
0.4084,2.21589740177,-0.0470947287977
0.4086,2.21589740177,-0.0470947287977
0.4088,2.17829999092,-0.0470947287977
0.409,2.21589740177,-0.0470947287977
0.4092,2.36628704515,-0.0470947287977
0.4094,2.44148186684,-0.0470947287977
0.4096,2.51667668854,-0.0470947287977
0.4098,2.51667668854,-0.0470947287977
0.41,2.44148186684,-0.0470947287977
0.4102,2.21589740177,-0.0470947287977
0.4104,2.06785759656,-0.0470947287977
0.4106,2.03026018571,-0.0470947287977
0.4108,2.03026018571,-0.0470947287977
0.411,2.06785759656,-0.0470947287977
0.4112,2.06785759656,-0.0470947287977
0.4114,2.06785759656,-0.0470947287977
0.4116,2.03026018571,-0.0470947287977
0.4118,1.91746795317,-0.0470947287977
0.412,1.84227313148,-0.0470947287977
0.4122,1.69188348809,-0.0470947287977
0.4124,1.58144109373,-0.0470947287977
0.4126,1.50624627204,-0.0470947287977
0.4128,1.46864886119,-0.0470947287977
0.413,1.50624627204,-0.0470947287977
0.4132,1.58144109373,-0.0470947287977
0.4134,1.58144109373,-0.0470947287977
0.4136,1.46864886119,-0.0470947287977
0.4138,1.31825921781,-0.0470947287977
0.414,1.16786957442,-0.0470947287977
0.4142,1.05742718006,-0.0470947287977
0.4144,1.01982976921,-0.0470947287977
0.4146,0.944634947518,-0.0470947287977
0.4148,0.907037536672,-0.0470947287977
0.415,0.907037536672,-0.0470947287977
0.4152,0.869440125825,-0.0470947287977
0.4154,0.794245304132,-0.0470947287977
0.4156,0.681453071593,-0.0470947287977
0.4158,0.495815855538,-0.0470947287977
0.416,0.307828801306,-0.0470947287977
0.4162,0.15743915792,-0.0470947287977
0.4164,0.0845941744046,-0.0470947287977
0.4166,0.0845941744046,-0.0470947287977
0.4168,0.0845941744046,-0.0470947287977
0.417,0.00939935271163,-0.0470947287977
0.4172,-0.0281980581349,-0.0470947287977
0.4174,-0.178587701521,-0.0470947287977
0.4176,-0.328977344907,-0.0470947287977
0.4178,-0.477017150115,-0.0470947287977
0.418,-0.627406793501,-0.0470947287977
0.4182,-0.740199026041,-0.0470947287977
0.4184,-0.777796436887,-0.0470947287977
0.4186,-0.777796436887,-0.0470947287977
0.4188,-0.777796436887,-0.0470947287977
0.419,-0.740199026041,-0.0470947287977
0.4192,-0.777796436887,-0.0470947287977
0.4194,-0.925836242095,-0.0470947287977
0.4196,-1.07622588548,-0.0470947287977
0.4198,-1.22661552887,-0.0470947287977
0.42,-1.30181035056,-0.0470947287977
0.4202,-1.30181035056,-0.0470947287977
0.4204,-1.30181035056,-0.0470947287977
0.4206,-1.30181035056,-0.0470947287977
0.4208,-1.30181035056,-0.0470947287977
0.421,-1.33705792323,-0.0470947287977
0.4212,-1.41225274492,-0.0470947287977
0.4214,-1.52504497746,-0.0470947287977
0.4216,-1.71303203169,-0.0470947287977
0.4218,-1.82347442606,-0.0470947287977
0.422,-1.93626665859,-0.0470947287977
0.4222,-1.93626665859,-0.0470947287977
0.4224,-1.89866924775,-0.0470947287977
0.4226,-1.82347442606,-0.0470947287977
0.4228,-1.82347442606,-0.0470947287977
0.423,-1.82347442606,-0.0470947287977
0.4232,-1.93626665859,-0.0470947287977
0.4234,-2.01146148029,-0.0470947287977
0.4236,-2.12425371283,-0.0470947287977
0.4238,-2.04905889113,-0.0470947287977
0.424,-2.01146148029,-0.0470947287977
0.4242,-1.97386406944,-0.0470947287977
0.4244,-1.8610718369,-0.0470947287977
0.4246,-1.78822685339,-0.0470947287977
0.4248,-1.71303203169,-0.0470947287977
0.425,-1.71303203169,-0.0470947287977
0.4252,-1.78822685339,-0.0470947287977
0.4254,-1.8610718369,-0.0470947287977
0.4256,-1.8610718369,-0.0470947287977
0.4258,-1.82347442606,-0.0470947287977
0.426,-1.71303203169,-0.0470947287977
0.4262,-1.63783721,-0.0470947287977
0.4264,-1.56264238831,-0.0470947287977
0.4266,-1.56264238831,-0.0470947287977
0.4268,-1.60023979915,-0.0470947287977
0.427,-1.60023979915,-0.0470947287977
0.4272,-1.63783721,-0.0470947287977
0.4274,-1.67543462085,-0.0470947287977
0.4276,-1.63783721,-0.0470947287977
0.4278,-1.56264238831,-0.0470947287977
0.428,-1.48744756661,-0.0470947287977
0.4282,-1.33705792323,-0.0470947287977
0.4284,-1.22661552887,-0.0470947287977
0.4286,-1.18901811802,-0.0470947287977
0.4288,-1.18901811802,-0.0470947287977
0.429,-1.18901811802,-0.0470947287977
0.4292,-1.15142070717,-0.0470947287977
0.4294,-1.07622588548,-0.0470947287977
0.4296,-0.925836242095,-0.0470947287977
0.4298,-0.740199026041,-0.0470947287977
0.43,-0.627406793501,-0.0470947287977
0.4302,-0.514614560961,-0.0470947287977
0.4304,-0.439419739268,-0.0470947287977
0.4306,-0.401822328422,-0.0470947287977
0.4308,-0.364224917575,-0.0470947287977
0.431,-0.328977344907,-0.0470947287977
0.4312,-0.328977344907,-0.0470947287977
0.4314,-0.29137993406,-0.0470947287977
0.4316,-0.140990290674,-0.0470947287977
0.4318,0.00939935271163,-0.0470947287977
0.432,0.122191585251,-0.0470947287977
0.4322,0.195036568766,-0.0470947287977
0.4324,0.15743915792,-0.0470947287977
0.4326,0.122191585251,-0.0470947287977
0.4328,0.122191585251,-0.0470947287977
0.433,0.195036568766,-0.0470947287977
0.4332,0.270231390459,-0.0470947287977
0.4334,0.383023622999,-0.0470947287977
0.4336,0.495815855538,-0.0470947287977
0.4338,0.608608088078,-0.0470947287977
0.434,0.719050482439,-0.0470947287977
0.4342,0.794245304132,-0.0470947287977
0.4344,0.831842714979,-0.0470947287977
0.4346,0.831842714979,-0.0470947287977
0.4348,0.794245304132,-0.0470947287977
0.435,0.869440125825,-0.0470947287977
0.4352,1.01982976921,-0.0470947287977
0.4354,1.20546698527,-0.0470947287977
0.4356,1.35585662865,-0.0470947287977
0.4358,1.43105145034,-0.0470947287977
0.436,1.43105145034,-0.0470947287977
0.4362,1.43105145034,-0.0470947287977
0.4364,1.3934540395,-0.0470947287977
0.4366,1.3934540395,-0.0470947287977
0.4368,1.43105145034,-0.0470947287977
0.437,1.46864886119,-0.0470947287977
0.4372,1.50624627204,-0.0470947287977
0.4374,1.61903850458,-0.0470947287977
0.4376,1.69188348809,-0.0470947287977
0.4378,1.69188348809,-0.0470947287977
0.438,1.65428607725,-0.0470947287977
0.4382,1.54384368288,-0.0470947287977
0.4384,1.43105145034,-0.0470947287977
0.4386,1.43105145034,-0.0470947287977
0.4388,1.46864886119,-0.0470947287977
0.439,1.58144109373,-0.0470947287977
0.4392,1.65428607725,-0.0470947287977
0.4394,1.69188348809,-0.0470947287977
0.4396,1.69188348809,-0.0470947287977
0.4398,1.69188348809,-0.0470947287977
0.44,1.61903850458,-0.0470947287977
0.4402,1.58144109373,-0.0470947287977
0.4404,1.54384368288,-0.0470947287977
0.4406,1.50624627204,-0.0470947287977
0.4408,1.54384368288,-0.0470947287977
0.441,1.61903850458,-0.0470947287977
0.4412,1.72948089894,-0.0470947287977
0.4414,1.72948089894,-0.0470947287977
0.4416,1.69188348809,-0.0470947287977
0.4418,1.54384368288,-0.0470947287977
0.442,1.43105145034,-0.0470947287977
0.4422,1.31825921781,-0.0470947287977
0.4424,1.24306439611,-0.0470947287977
0.4426,1.24306439611,-0.0470947287977
0.4428,1.24306439611,-0.0470947287977
0.443,1.24306439611,-0.0470947287977
0.4432,1.20546698527,-0.0470947287977
0.4434,1.16786957442,-0.0470947287977
0.4436,1.0950245909,-0.0470947287977
0.4438,0.982232358365,-0.0470947287977
0.444,0.831842714979,-0.0470947287977
0.4442,0.681453071593,-0.0470947287977
0.4444,0.681453071593,-0.0470947287977
0.4446,0.681453071593,-0.0470947287977
0.4448,0.681453071593,-0.0470947287977
0.445,0.681453071593,-0.0470947287977
0.4452,0.646205498924,-0.0470947287977
0.4454,0.533413266385,-0.0470947287977
0.4456,0.420621033845,-0.0470947287977
0.4458,0.307828801306,-0.0470947287977
0.446,0.232633979613,-0.0470947287977
0.4462,0.195036568766,-0.0470947287977
0.4464,0.122191585251,-0.0470947287977
0.4466,0.15743915792,-0.0470947287977
0.4468,0.15743915792,-0.0470947287977
0.447,0.122191585251,-0.0470947287977
0.4472,0.0845941744046,-0.0470947287977
0.4474,-0.0281980581349,-0.0470947287977
0.4476,-0.178587701521,-0.0470947287977
0.4478,-0.328977344907,-0.0470947287977
0.448,-0.401822328422,-0.0470947287977
0.4482,-0.477017150115,-0.0470947287977
0.4484,-0.364224917575,-0.0470947287977
0.4486,-0.401822328422,-0.0470947287977
0.4488,-0.477017150115,-0.0470947287977
0.449,-0.552211971808,-0.0470947287977
0.4492,-0.665004204347,-0.0470947287977
0.4494,-0.777796436887,-0.0470947287977
0.4496,-0.888238831249,-0.0470947287977
0.4498,-0.963433652942,-0.0470947287977
0.45,-1.00103106379,-0.0470947287977
0.4502,-1.03862847463,-0.0470947287977
0.4504,-1.03862847463,-0.0470947287977
0.4506,-0.963433652942,-0.0470947287977
0.4508,-0.963433652942,-0.0470947287977
0.451,-1.07622588548,-0.0470947287977
0.4512,-1.11382329633,-0.0470947287977
0.4514,-1.22661552887,-0.0470947287977
0.4516,-1.22661552887,-0.0470947287977
0.4518,-1.22661552887,-0.0470947287977
0.452,-1.22661552887,-0.0470947287977
0.4522,-1.22661552887,-0.0470947287977
0.4524,-1.18901811802,-0.0470947287977
0.4526,-1.15142070717,-0.0470947287977
0.4528,-1.15142070717,-0.0470947287977
0.453,-1.18901811802,-0.0470947287977
0.4532,-1.26421293971,-0.0470947287977
0.4534,-1.33705792323,-0.0470947287977
0.4536,-1.41225274492,-0.0470947287977
0.4538,-1.41225274492,-0.0470947287977
0.454,-1.37465533408,-0.0470947287977
0.4542,-1.30181035056,-0.0470947287977
0.4544,-1.30181035056,-0.0470947287977
0.4546,-1.37465533408,-0.0470947287977
0.4548,-1.37465533408,-0.0470947287977
0.455,-1.48744756661,-0.0470947287977
0.4552,-1.44985015577,-0.0470947287977
0.4554,-1.44985015577,-0.0470947287977
0.4556,-1.41225274492,-0.0470947287977
0.4558,-1.37465533408,-0.0470947287977
0.456,-1.30181035056,-0.0470947287977
0.4562,-1.18901811802,-0.0470947287977
0.4564,-1.11382329633,-0.0470947287977
0.4566,-1.07622588548,-0.0470947287977
0.4568,-1.11382329633,-0.0470947287977
0.457,-1.11382329633,-0.0470947287977
0.4572,-1.11382329633,-0.0470947287977
0.4574,-1.07622588548,-0.0470947287977
0.4576,-0.963433652942,-0.0470947287977
0.4578,-0.850641420402,-0.0470947287977
0.458,-0.777796436887,-0.0470947287977
0.4582,-0.777796436887,-0.0470947287977
0.4584,-0.777796436887,-0.0470947287977
0.4586,-0.777796436887,-0.0470947287977
0.4588,-0.777796436887,-0.0470947287977
0.459,-0.777796436887,-0.0470947287977
0.4592,-0.777796436887,-0.0470947287977
0.4594,-0.740199026041,-0.0470947287977
0.4596,-0.627406793501,-0.0470947287977
0.4598,-0.514614560961,-0.0470947287977
0.46,-0.439419739268,-0.0470947287977
0.4602,-0.401822328422,-0.0470947287977
0.4604,-0.401822328422,-0.0470947287977
0.4606,-0.439419739268,-0.0470947287977
0.4608,-0.477017150115,-0.0470947287977
0.461,-0.401822328422,-0.0470947287977
0.4612,-0.29137993406,-0.0470947287977
0.4614,-0.140990290674,-0.0470947287977
0.4616,-0.0281980581349,-0.0470947287977
0.4618,0.00939935271163,-0.0470947287977
0.462,0.122191585251,-0.0470947287977
0.4622,0.15743915792,-0.0470947287977
0.4624,0.195036568766,-0.0470947287977
0.4626,0.15743915792,-0.0470947287977
0.4628,0.15743915792,-0.0470947287977
0.463,0.195036568766,-0.0470947287977
0.4632,0.307828801306,-0.0470947287977
0.4634,0.420621033845,-0.0470947287977
0.4636,0.533413266385,-0.0470947287977
0.4638,0.608608088078,-0.0470947287977
0.464,0.571010677231,-0.0470947287977
0.4642,0.571010677231,-0.0470947287977
0.4644,0.533413266385,-0.0470947287977
0.4646,0.533413266385,-0.0470947287977
0.4648,0.571010677231,-0.0470947287977
0.465,0.608608088078,-0.0470947287977
0.4652,0.646205498924,-0.0470947287977
0.4654,0.756647893286,-0.0470947287977
0.4656,0.831842714979,-0.0470947287977
0.4658,0.869440125825,-0.0470947287977
0.466,0.869440125825,-0.0470947287977
0.4662,0.831842714979,-0.0470947287977
0.4664,0.756647893286,-0.0470947287977
0.4666,0.719050482439,-0.0470947287977
0.4668,0.831842714979,-0.0470947287977
0.467,0.982232358365,-0.0470947287977
0.4672,1.05742718006,-0.0470947287977
0.4674,1.16786957442,-0.0470947287977
0.4676,1.20546698527,-0.0470947287977
0.4678,1.16786957442,-0.0470947287977
0.468,1.16786957442,-0.0470947287977
0.4682,1.13262200175,-0.0470947287977
0.4684,1.0950245909,-0.0470947287977
0.4686,1.0950245909,-0.0470947287977
0.4688,1.0950245909,-0.0470947287977
0.469,1.16786957442,-0.0470947287977
0.4692,1.24306439611,-0.0470947287977
0.4694,1.28066180696,-0.0470947287977
0.4696,1.24306439611,-0.0470947287977
0.4698,1.13262200175,-0.0470947287977
0.47,1.01982976921,-0.0470947287977
0.4702,0.944634947518,-0.0470947287977
0.4704,0.907037536672,-0.0470947287977
0.4706,0.944634947518,-0.0470947287977
0.4708,0.982232358365,-0.0470947287977
0.471,1.01982976921,-0.0470947287977
0.4712,1.01982976921,-0.0470947287977
0.4714,1.01982976921,-0.0470947287977
0.4716,0.982232358365,-0.0470947287977
0.4718,0.907037536672,-0.0470947287977
0.472,0.831842714979,-0.0470947287977
0.4722,0.719050482439,-0.0470947287977
0.4724,0.719050482439,-0.0470947287977
0.4726,0.756647893286,-0.0470947287977
0.4728,0.831842714979,-0.0470947287977
0.473,0.869440125825,-0.0470947287977
0.4732,0.869440125825,-0.0470947287977
0.4734,0.794245304132,-0.0470947287977
0.4736,0.681453071593,-0.0470947287977
0.4738,0.571010677231,-0.0470947287977
0.474,0.533413266385,-0.0470947287977
0.4742,0.495815855538,-0.0470947287977
0.4744,0.495815855538,-0.0470947287977
0.4746,0.495815855538,-0.0470947287977
0.4748,0.495815855538,-0.0470947287977
0.475,0.495815855538,-0.0470947287977
0.4752,0.458218444692,-0.0470947287977
0.4754,0.383023622999,-0.0470947287977
0.4756,0.232633979613,-0.0470947287977
0.4758,0.0845941744046,-0.0470947287977
0.476,0.00939935271163,-0.0470947287977
0.4762,-0.0281980581349,-0.0470947287977
0.4764,0.0469967635581,-0.0470947287977
0.4766,0.0469967635581,-0.0470947287977
0.4768,0.00939935271163,-0.0470947287977
0.477,-0.0281980581349,-0.0470947287977
0.4772,-0.103392879828,-0.0470947287977
0.4774,-0.216185112367,-0.0470947287977
0.4776,-0.29137993406,-0.0470947287977
0.4778,-0.328977344907,-0.0470947287977
0.478,-0.364224917575,-0.0470947287977
0.4782,-0.364224917575,-0.0470947287977
0.4784,-0.328977344907,-0.0470947287977
0.4786,-0.29137993406,-0.0470947287977
0.4788,-0.29137993406,-0.0470947287977
0.479,-0.328977344907,-0.0470947287977
0.4792,-0.477017150115,-0.0470947287977
0.4794,-0.552211971808,-0.0470947287977
0.4796,-0.627406793501,-0.0470947287977
0.4798,-0.627406793501,-0.0470947287977
0.48,-0.627406793501,-0.0470947287977
0.4802,-0.589809382654,-0.0470947287977
0.4804,-0.589809382654,-0.0470947287977
0.4806,-0.589809382654,-0.0470947287977
0.4808,-0.627406793501,-0.0470947287977
0.481,-0.702601615194,-0.0470947287977
0.4812,-0.777796436887,-0.0470947287977
0.4814,-0.925836242095,-0.0470947287977
0.4816,-0.963433652942,-0.0470947287977
0.4818,-0.963433652942,-0.0470947287977
0.482,-0.888238831249,-0.0470947287977
0.4822,-0.815393847734,-0.0470947287977
0.4824,-0.777796436887,-0.0470947287977
0.4826,-0.815393847734,-0.0470947287977
0.4828,-0.888238831249,-0.0470947287977
0.483,-0.925836242095,-0.0470947287977
0.4832,-0.963433652942,-0.0470947287977
0.4834,-0.963433652942,-0.0470947287977
0.4836,-0.925836242095,-0.0470947287977
0.4838,-0.888238831249,-0.0470947287977
0.484,-0.815393847734,-0.0470947287977
0.4842,-0.777796436887,-0.0470947287977
0.4844,-0.702601615194,-0.0470947287977
0.4846,-0.702601615194,-0.0470947287977
0.4848,-0.777796436887,-0.0470947287977
0.485,-0.850641420402,-0.0470947287977
0.4852,-0.888238831249,-0.0470947287977
0.4854,-0.888238831249,-0.0470947287977
0.4856,-0.777796436887,-0.0470947287977
0.4858,-0.702601615194,-0.0470947287977
0.486,-0.665004204347,-0.0470947287977
0.4862,-0.665004204347,-0.0470947287977
0.4864,-0.665004204347,-0.0470947287977
0.4866,-0.702601615194,-0.0470947287977
0.4868,-0.740199026041,-0.0470947287977
0.487,-0.777796436887,-0.0470947287977
0.4872,-0.702601615194,-0.0470947287977
0.4874,-0.702601615194,-0.0470947287977
0.4876,-0.627406793501,-0.0470947287977
0.4878,-0.514614560961,-0.0470947287977
0.488,-0.401822328422,-0.0470947287977
0.4882,-0.364224917575,-0.0470947287977
0.4884,-0.364224917575,-0.0470947287977
0.4886,-0.477017150115,-0.0470947287977
0.4888,-0.477017150115,-0.0470947287977
0.489,-0.439419739268,-0.0470947287977
0.4892,-0.328977344907,-0.0470947287977
0.4894,-0.216185112367,-0.0470947287977
0.4896,-0.140990290674,-0.0470947287977
0.4898,-0.0657954689814,-0.0470947287977
0.49,-0.0281980581349,-0.0470947287977
0.4902,-0.0281980581349,-0.0470947287977
0.4904,-0.0281980581349,-0.0470947287977
0.4906,-0.0657954689814,-0.0470947287977
0.4908,-0.103392879828,-0.0470947287977
0.491,-0.103392879828,-0.0470947287977
0.4912,-0.0657954689814,-0.0470947287977
0.4914,0.0845941744046,-0.0470947287977
0.4916,0.195036568766,-0.0470947287977
0.4918,0.232633979613,-0.0470947287977
0.492,0.232633979613,-0.0470947287977
0.4922,0.15743915792,-0.0470947287977
0.4924,0.122191585251,-0.0470947287977
0.4926,0.122191585251,-0.0470947287977
0.4928,0.15743915792,-0.0470947287977
0.493,0.232633979613,-0.0470947287977
0.4932,0.270231390459,-0.0470947287977
0.4934,0.420621033845,-0.0470947287977
0.4936,0.495815855538,-0.0470947287977
0.4938,0.533413266385,-0.0470947287977
0.494,0.533413266385,-0.0470947287977
0.4942,0.533413266385,-0.0470947287977
0.4944,0.458218444692,-0.0470947287977
0.4946,0.420621033845,-0.0470947287977
0.4948,0.495815855538,-0.0470947287977
0.495,0.608608088078,-0.0470947287977
0.4952,0.681453071593,-0.0470947287977
0.4954,0.719050482439,-0.0470947287977
0.4956,0.719050482439,-0.0470947287977
0.4958,0.681453071593,-0.0470947287977
0.496,0.681453071593,-0.0470947287977
0.4962,0.608608088078,-0.0470947287977
0.4964,0.571010677231,-0.0470947287977
0.4966,0.571010677231,-0.0470947287977
0.4968,0.571010677231,-0.0470947287977
0.497,0.608608088078,-0.0470947287977
0.4972,0.681453071593,-0.0470947287977
0.4974,0.794245304132,-0.0470947287977
0.4976,0.756647893286,-0.0470947287977
0.4978,0.719050482439,-0.0470947287977
0.498,0.571010677231,-0.0470947287977
0.4982,0.533413266385,-0.0470947287977
0.4984,0.571010677231,-0.0470947287977
0.4986,0.608608088078,-0.0470947287977
0.4988,0.681453071593,-0.0470947287977
0.499,0.719050482439,-0.0470947287977
0.4992,0.719050482439,-0.0470947287977
0.4994,0.719050482439,-0.0470947287977
0.4996,0.719050482439,-0.0470947287977
0.4998,0.681453071593,-0.0470947287977
0.5,0.608608088078,-0.0470947287977
0.5002,0.533413266385,-0.0470947287977
0.5004,0.533413266385,-0.0470947287977
0.5006,0.571010677231,-0.0470947287977
0.5008,0.608608088078,-0.0470947287977
0.501,0.681453071593,-0.0470947287977
0.5012,0.681453071593,-0.0470947287977
0.5014,0.608608088078,-0.0470947287977
0.5016,0.495815855538,-0.0470947287977
0.5018,0.420621033845,-0.0470947287977
0.502,0.383023622999,-0.0470947287977
0.5022,0.307828801306,-0.0470947287977
0.5024,0.307828801306,-0.0470947287977
0.5026,0.345426212152,-0.0470947287977
0.5028,0.345426212152,-0.0470947287977
0.503,0.383023622999,-0.0470947287977
0.5032,0.383023622999,-0.0470947287977
0.5034,0.270231390459,-0.0470947287977
0.5036,0.195036568766,-0.0470947287977
0.5038,0.0845941744046,-0.0470947287977
0.504,0.00939935271163,-0.0470947287977
0.5042,0.00939935271163,-0.0470947287977
0.5044,0.122191585251,-0.0470947287977
0.5046,0.15743915792,-0.0470947287977
0.5048,0.195036568766,-0.0470947287977
0.505,0.122191585251,-0.0470947287977
0.5052,0.0845941744046,-0.0470947287977
0.5054,-0.0281980581349,-0.0470947287977
0.5056,-0.0657954689814,-0.0470947287977
0.5058,-0.140990290674,-0.0470947287977
0.506,-0.178587701521,-0.0470947287977
0.5062,-0.178587701521,-0.0470947287977
0.5064,-0.103392879828,-0.0470947287977
0.5066,-0.0657954689814,-0.0470947287977
0.5068,-0.0657954689814,-0.0470947287977
0.507,-0.140990290674,-0.0470947287977
0.5072,-0.253782523214,-0.0470947287977
0.5074,-0.364224917575,-0.0470947287977
0.5076,-0.477017150115,-0.0470947287977
0.5078,-0.477017150115,-0.0470947287977
0.508,-0.401822328422,-0.0470947287977
0.5082,-0.364224917575,-0.0470947287977
0.5084,-0.364224917575,-0.0470947287977
0.5086,-0.401822328422,-0.0470947287977
0.5088,-0.439419739268,-0.0470947287977
0.509,-0.439419739268,-0.0470947287977
0.5092,-0.514614560961,-0.0470947287977
0.5094,-0.627406793501,-0.0470947287977
0.5096,-0.665004204347,-0.0470947287977
0.5098,-0.665004204347,-0.0470947287977
0.51,-0.589809382654,-0.0470947287977
0.5102,-0.514614560961,-0.0470947287977
0.5104,-0.439419739268,-0.0470947287977
0.5106,-0.439419739268,-0.0470947287977
0.5108,-0.514614560961,-0.0470947287977
0.511,-0.627406793501,-0.0470947287977
0.5112,-0.627406793501,-0.0470947287977
0.5114,-0.702601615194,-0.0470947287977
0.5116,-0.627406793501,-0.0470947287977
0.5118,-0.627406793501,-0.0470947287977
0.512,-0.589809382654,-0.0470947287977
0.5122,-0.552211971808,-0.0470947287977
0.5124,-0.514614560961,-0.0470947287977
0.5126,-0.514614560961,-0.0470947287977
0.5128,-0.589809382654,-0.0470947287977
0.513,-0.627406793501,-0.0470947287977
0.5132,-0.702601615194,-0.0470947287977
0.5134,-0.740199026041,-0.0470947287977
0.5136,-0.627406793501,-0.0470947287977
0.5138,-0.552211971808,-0.0470947287977
0.514,-0.477017150115,-0.0470947287977
0.5142,-0.477017150115,-0.0470947287977
0.5144,-0.514614560961,-0.0470947287977
0.5146,-0.552211971808,-0.0470947287977
0.5148,-0.589809382654,-0.0470947287977
0.515,-0.589809382654,-0.0470947287977
0.5152,-0.552211971808,-0.0470947287977
0.5154,-0.514614560961,-0.0470947287977
0.5156,-0.439419739268,-0.0470947287977
0.5158,-0.328977344907,-0.0470947287977
0.516,-0.216185112367,-0.0470947287977
0.5162,-0.216185112367,-0.0470947287977
0.5164,-0.216185112367,-0.0470947287977
0.5166,-0.29137993406,-0.0470947287977
0.5168,-0.328977344907,-0.0470947287977
0.517,-0.328977344907,-0.0470947287977
0.5172,-0.29137993406,-0.0470947287977
0.5174,-0.178587701521,-0.0470947287977
0.5176,-0.0657954689814,-0.0470947287977
0.5178,-0.0281980581349,-0.0470947287977
0.518,-0.0281980581349,-0.0470947287977
0.5182,-0.0281980581349,-0.0470947287977
0.5184,-0.0657954689814,-0.0470947287977
0.5186,-0.103392879828,-0.0470947287977
0.5188,-0.140990290674,-0.0470947287977
0.519,-0.178587701521,-0.0470947287977
0.5192,-0.0657954689814,-0.0470947287977
0.5194,0.0469967635581,-0.0470947287977
0.5196,0.195036568766,-0.0470947287977
0.5198,0.232633979613,-0.0470947287977
0.52,0.232633979613,-0.0470947287977
0.5202,0.15743915792,-0.0470947287977
0.5204,0.122191585251,-0.0470947287977
0.5206,0.122191585251,-0.0470947287977
0.5208,0.195036568766,-0.0470947287977
0.521,0.270231390459,-0.0470947287977
0.5212,0.383023622999,-0.0470947287977
0.5214,0.420621033845,-0.0470947287977
0.5216,0.495815855538,-0.0470947287977
0.5218,0.533413266385,-0.0470947287977
0.522,0.533413266385,-0.0470947287977
0.5222,0.495815855538,-0.0470947287977
0.5224,0.420621033845,-0.0470947287977
0.5226,0.345426212152,-0.0470947287977
0.5228,0.383023622999,-0.0470947287977
0.523,0.495815855538,-0.0470947287977
0.5232,0.571010677231,-0.0470947287977
0.5234,0.646205498924,-0.0470947287977
0.5236,0.608608088078,-0.0470947287977
0.5238,0.571010677231,-0.0470947287977
0.524,0.533413266385,-0.0470947287977
0.5242,0.458218444692,-0.0470947287977
0.5244,0.495815855538,-0.0470947287977
0.5246,0.458218444692,-0.0470947287977
0.5248,0.495815855538,-0.0470947287977
0.525,0.533413266385,-0.0470947287977
0.5252,0.608608088078,-0.0470947287977
0.5254,0.681453071593,-0.0470947287977
0.5256,0.681453071593,-0.0470947287977
0.5258,0.608608088078,-0.0470947287977
0.526,0.533413266385,-0.0470947287977
0.5262,0.495815855538,-0.0470947287977
0.5264,0.495815855538,-0.0470947287977
0.5266,0.571010677231,-0.0470947287977
0.5268,0.608608088078,-0.0470947287977
0.527,0.681453071593,-0.0470947287977
0.5272,0.681453071593,-0.0470947287977
0.5274,0.681453071593,-0.0470947287977
0.5276,0.608608088078,-0.0470947287977
0.5278,0.533413266385,-0.0470947287977
0.528,0.495815855538,-0.0470947287977
0.5282,0.420621033845,-0.0470947287977
0.5284,0.383023622999,-0.0470947287977
0.5286,0.420621033845,-0.0470947287977
0.5288,0.495815855538,-0.0470947287977
0.529,0.533413266385,-0.0470947287977
0.5292,0.533413266385,-0.0470947287977
0.5294,0.420621033845,-0.0470947287977
0.5296,0.345426212152,-0.0470947287977
0.5298,0.232633979613,-0.0470947287977
0.53,0.195036568766,-0.0470947287977
0.5302,0.195036568766,-0.0470947287977
0.5304,0.232633979613,-0.0470947287977
0.5306,0.232633979613,-0.0470947287977
0.5308,0.270231390459,-0.0470947287977
0.531,0.232633979613,-0.0470947287977
0.5312,0.232633979613,-0.0470947287977
0.5314,0.232633979613,-0.0470947287977
0.5316,0.0845941744046,-0.0470947287977
0.5318,0.00939935271163,-0.0470947287977
0.532,-0.0281980581349,-0.0470947287977
0.5322,-0.0281980581349,-0.0470947287977
0.5324,0.0845941744046,-0.0470947287977
0.5326,0.122191585251,-0.0470947287977
0.5328,0.122191585251,-0.0470947287977
0.533,0.0845941744046,-0.0470947287977
0.5332,-0.0281980581349,-0.0470947287977
0.5334,-0.103392879828,-0.0470947287977
0.5336,-0.178587701521,-0.0470947287977
0.5338,-0.216185112367,-0.0470947287977
0.534,-0.253782523214,-0.0470947287977
0.5342,-0.253782523214,-0.0470947287977
0.5344,-0.253782523214,-0.0470947287977
0.5346,-0.216185112367,-0.0470947287977
0.5348,-0.216185112367,-0.0470947287977
0.535,-0.253782523214,-0.0470947287977
0.5352,-0.364224917575,-0.0470947287977
0.5354,-0.477017150115,-0.0470947287977
0.5356,-0.552211971808,-0.0470947287977
0.5358,-0.552211971808,-0.0470947287977
0.536,-0.514614560961,-0.0470947287977
0.5362,-0.401822328422,-0.0470947287977
0.5364,-0.364224917575,-0.0470947287977
0.5366,-0.401822328422,-0.0470947287977
0.5368,-0.439419739268,-0.0470947287977
0.537,-0.477017150115,-0.0470947287977
0.5372,-0.514614560961,-0.0470947287977
0.5374,-0.589809382654,-0.0470947287977
0.5376,-0.627406793501,-0.0470947287977
0.5378,-0.589809382654,-0.0470947287977
0.538,-0.552211971808,-0.0470947287977
0.5382,-0.477017150115,-0.0470947287977
0.5384,-0.439419739268,-0.0470947287977
0.5386,-0.477017150115,-0.0470947287977
0.5388,-0.552211971808,-0.0470947287977
0.539,-0.665004204347,-0.0470947287977
0.5392,-0.702601615194,-0.0470947287977
0.5394,-0.702601615194,-0.0470947287977
0.5396,-0.665004204347,-0.0470947287977
0.5398,-0.627406793501,-0.0470947287977
0.54,-0.627406793501,-0.0470947287977
0.5402,-0.589809382654,-0.0470947287977
0.5404,-0.627406793501,-0.0470947287977
0.5406,-0.589809382654,-0.0470947287977
0.5408,-0.627406793501,-0.0470947287977
0.541,-0.665004204347,-0.0470947287977
0.5412,-0.777796436887,-0.0470947287977
0.5414,-0.777796436887,-0.0470947287977
0.5416,-0.702601615194,-0.0470947287977
0.5418,-0.589809382654,-0.0470947287977
0.542,-0.514614560961,-0.0470947287977
0.5422,-0.477017150115,-0.0470947287977
0.5424,-0.477017150115,-0.0470947287977
0.5426,-0.552211971808,-0.0470947287977
0.5428,-0.589809382654,-0.0470947287977
0.543,-0.552211971808,-0.0470947287977
0.5432,-0.514614560961,-0.0470947287977
0.5434,-0.477017150115,-0.0470947287977
0.5436,-0.401822328422,-0.0470947287977
0.5438,-0.364224917575,-0.0470947287977
0.544,-0.29137993406,-0.0470947287977
0.5442,-0.253782523214,-0.0470947287977
0.5444,-0.253782523214,-0.0470947287977
0.5446,-0.328977344907,-0.0470947287977
0.5448,-0.401822328422,-0.0470947287977
0.545,-0.401822328422,-0.0470947287977
0.5452,-0.328977344907,-0.0470947287977
0.5454,-0.216185112367,-0.0470947287977
0.5456,-0.178587701521,-0.0470947287977
0.5458,-0.140990290674,-0.0470947287977
0.546,-0.0657954689814,-0.0470947287977
0.5462,-0.103392879828,-0.0470947287977
0.5464,-0.103392879828,-0.0470947287977
0.5466,-0.178587701521,-0.0470947287977
0.5468,-0.140990290674,-0.0470947287977
0.547,-0.103392879828,-0.0470947287977
0.5472,-0.0281980581349,-0.0470947287977
0.5474,0.0469967635581,-0.0470947287977
0.5476,0.15743915792,-0.0470947287977
0.5478,0.232633979613,-0.0470947287977
0.548,0.232633979613,-0.0470947287977
0.5482,0.232633979613,-0.0470947287977
0.5484,0.232633979613,-0.0470947287977
0.5486,0.195036568766,-0.0470947287977
0.5488,0.270231390459,-0.0470947287977
0.549,0.307828801306,-0.0470947287977
0.5492,0.383023622999,-0.0470947287977
0.5494,0.495815855538,-0.0470947287977
0.5496,0.495815855538,-0.0470947287977
0.5498,0.533413266385,-0.0470947287977
0.55,0.533413266385,-0.0470947287977
0.5502,0.495815855538,-0.0470947287977
0.5504,0.495815855538,-0.0470947287977
0.5506,0.420621033845,-0.0470947287977
0.5508,0.458218444692,-0.0470947287977
0.551,0.533413266385,-0.0470947287977
0.5512,0.608608088078,-0.0470947287977
0.5514,0.681453071593,-0.0470947287977
0.5516,0.681453071593,-0.0470947287977
0.5518,0.608608088078,-0.0470947287977
0.552,0.571010677231,-0.0470947287977
0.5522,0.571010677231,-0.0470947287977
0.5524,0.571010677231,-0.0470947287977
0.5526,0.608608088078,-0.0470947287977
0.5528,0.646205498924,-0.0470947287977
0.553,0.719050482439,-0.0470947287977
0.5532,0.794245304132,-0.0470947287977
0.5534,0.831842714979,-0.0470947287977
0.5536,0.869440125825,-0.0470947287977
0.5538,0.794245304132,-0.0470947287977
0.554,0.719050482439,-0.0470947287977
0.5542,0.681453071593,-0.0470947287977
0.5544,0.681453071593,-0.0470947287977
0.5546,0.719050482439,-0.0470947287977
0.5548,0.794245304132,-0.0470947287977
0.555,0.831842714979,-0.0470947287977
0.5552,0.831842714979,-0.0470947287977
0.5554,0.831842714979,-0.0470947287977
0.5556,0.719050482439,-0.0470947287977
0.5558,0.681453071593,-0.0470947287977
0.556,0.646205498924,-0.0470947287977
0.5562,0.571010677231,-0.0470947287977
0.5564,0.533413266385,-0.0470947287977
0.5566,0.571010677231,-0.0470947287977
0.5568,0.608608088078,-0.0470947287977
0.557,0.646205498924,-0.0470947287977
0.5572,0.681453071593,-0.0470947287977
0.5574,0.608608088078,-0.0470947287977
0.5576,0.495815855538,-0.0470947287977
0.5578,0.420621033845,-0.0470947287977
0.558,0.383023622999,-0.0470947287977
0.5582,0.383023622999,-0.0470947287977
0.5584,0.420621033845,-0.0470947287977
0.5586,0.458218444692,-0.0470947287977
0.5588,0.458218444692,-0.0470947287977
0.559,0.458218444692,-0.0470947287977
0.5592,0.420621033845,-0.0470947287977
0.5594,0.420621033845,-0.0470947287977
0.5596,0.307828801306,-0.0470947287977
0.5598,0.232633979613,-0.0470947287977
0.56,0.15743915792,-0.0470947287977
0.5602,0.15743915792,-0.0470947287977
0.5604,0.15743915792,-0.0470947287977
0.5606,0.232633979613,-0.0470947287977
0.5608,0.232633979613,-0.0470947287977
0.561,0.195036568766,-0.0470947287977
0.5612,0.0845941744046,-0.0470947287977
0.5614,-0.0281980581349,-0.0470947287977
0.5616,-0.103392879828,-0.0470947287977
0.5618,-0.178587701521,-0.0470947287977
0.562,-0.178587701521,-0.0470947287977
0.5622,-0.178587701521,-0.0470947287977
0.5624,-0.178587701521,-0.0470947287977
0.5626,-0.178587701521,-0.0470947287977
0.5628,-0.178587701521,-0.0470947287977
0.563,-0.253782523214,-0.0470947287977
0.5632,-0.328977344907,-0.0470947287977
0.5634,-0.439419739268,-0.0470947287977
0.5636,-0.514614560961,-0.0470947287977
0.5638,-0.514614560961,-0.0470947287977
0.564,-0.477017150115,-0.0470947287977
0.5642,-0.439419739268,-0.0470947287977
0.5644,-0.401822328422,-0.0470947287977
0.5646,-0.401822328422,-0.0470947287977
0.5648,-0.477017150115,-0.0470947287977
0.565,-0.514614560961,-0.0470947287977
0.5652,-0.589809382654,-0.0470947287977
0.5654,-0.627406793501,-0.0470947287977
0.5656,-0.627406793501,-0.0470947287977
0.5658,-0.665004204347,-0.0470947287977
0.566,-0.665004204347,-0.0470947287977
0.5662,-0.627406793501,-0.0470947287977
0.5664,-0.589809382654,-0.0470947287977
0.5666,-0.589809382654,-0.0470947287977
0.5668,-0.665004204347,-0.0470947287977
0.567,-0.740199026041,-0.0470947287977
0.5672,-0.815393847734,-0.0470947287977
0.5674,-0.888238831249,-0.0470947287977
0.5676,-0.850641420402,-0.0470947287977
0.5678,-0.777796436887,-0.0470947287977
0.568,-0.777796436887,-0.0470947287977
0.5682,-0.777796436887,-0.0470947287977
0.5684,-0.740199026041,-0.0470947287977
0.5686,-0.777796436887,-0.0470947287977
0.5688,-0.815393847734,-0.0470947287977
0.569,-0.850641420402,-0.0470947287977
0.5692,-0.925836242095,-0.0470947287977
0.5694,-0.925836242095,-0.0470947287977
0.5696,-0.888238831249,-0.0470947287977
0.5698,-0.777796436887,-0.0470947287977
0.57,-0.665004204347,-0.0470947287977
0.5702,-0.665004204347,-0.0470947287977
0.5704,-0.665004204347,-0.0470947287977
0.5706,-0.740199026041,-0.0470947287977
0.5708,-0.777796436887,-0.0470947287977
0.571,-0.777796436887,-0.0470947287977
0.5712,-0.740199026041,-0.0470947287977
0.5714,-0.702601615194,-0.0470947287977
0.5716,-0.627406793501,-0.0470947287977
0.5718,-0.589809382654,-0.0470947287977
0.572,-0.514614560961,-0.0470947287977
0.5722,-0.514614560961,-0.0470947287977
0.5724,-0.514614560961,-0.0470947287977
0.5726,-0.552211971808,-0.0470947287977
0.5728,-0.627406793501,-0.0470947287977
0.573,-0.627406793501,-0.0470947287977
0.5732,-0.589809382654,-0.0470947287977
0.5734,-0.477017150115,-0.0470947287977
0.5736,-0.401822328422,-0.0470947287977
0.5738,-0.364224917575,-0.0470947287977
0.574,-0.328977344907,-0.0470947287977
0.5742,-0.328977344907,-0.0470947287977
0.5744,-0.328977344907,-0.0470947287977
0.5746,-0.328977344907,-0.0470947287977
0.5748,-0.328977344907,-0.0470947287977
0.575,-0.29137993406,-0.0470947287977
0.5752,-0.216185112367,-0.0470947287977
0.5754,-0.103392879828,-0.0470947287977
0.5756,-0.0281980581349,-0.0470947287977
0.5758,0.0845941744046,-0.0470947287977
0.576,0.0845941744046,-0.0470947287977
0.5762,0.0845941744046,-0.0470947287977
0.5764,0.00939935271163,-0.0470947287977
0.5766,0.00939935271163,-0.0470947287977
0.5768,0.0845941744046,-0.0470947287977
0.577,0.195036568766,-0.0470947287977
0.5772,0.232633979613,-0.0470947287977
0.5774,0.307828801306,-0.0470947287977
0.5776,0.345426212152,-0.0470947287977
0.5778,0.383023622999,-0.0470947287977
0.578,0.383023622999,-0.0470947287977
0.5782,0.345426212152,-0.0470947287977
0.5784,0.345426212152,-0.0470947287977
0.5786,0.307828801306,-0.0470947287977
0.5788,0.383023622999,-0.0470947287977
0.579,0.420621033845,-0.0470947287977
0.5792,0.533413266385,-0.0470947287977
0.5794,0.608608088078,-0.0470947287977
0.5796,0.646205498924,-0.0470947287977
0.5798,0.608608088078,-0.0470947287977
0.58,0.571010677231,-0.0470947287977
0.5802,0.571010677231,-0.0470947287977
0.5804,0.571010677231,-0.0470947287977
0.5806,0.646205498924,-0.0470947287977
0.5808,0.681453071593,-0.0470947287977
0.581,0.756647893286,-0.0470947287977
0.5812,0.831842714979,-0.0470947287977
0.5814,0.869440125825,-0.0470947287977
0.5816,0.907037536672,-0.0470947287977
0.5818,0.869440125825,-0.0470947287977
0.582,0.831842714979,-0.0470947287977
0.5822,0.794245304132,-0.0470947287977
0.5824,0.794245304132,-0.0470947287977
0.5826,0.869440125825,-0.0470947287977
0.5828,0.907037536672,-0.0470947287977
0.583,0.982232358365,-0.0470947287977
0.5832,0.982232358365,-0.0470947287977
0.5834,0.982232358365,-0.0470947287977
0.5836,0.907037536672,-0.0470947287977
0.5838,0.869440125825,-0.0470947287977
0.584,0.831842714979,-0.0470947287977
0.5842,0.794245304132,-0.0470947287977
0.5844,0.831842714979,-0.0470947287977
0.5846,0.831842714979,-0.0470947287977
0.5848,0.869440125825,-0.0470947287977
0.585,0.869440125825,-0.0470947287977
0.5852,0.907037536672,-0.0470947287977
0.5854,0.869440125825,-0.0470947287977
0.5856,0.756647893286,-0.0470947287977
0.5858,0.681453071593,-0.0470947287977
0.586,0.681453071593,-0.0470947287977
0.5862,0.681453071593,-0.0470947287977
0.5864,0.756647893286,-0.0470947287977
0.5866,0.756647893286,-0.0470947287977
0.5868,0.794245304132,-0.0470947287977
0.587,0.794245304132,-0.0470947287977
0.5872,0.756647893286,-0.0470947287977
0.5874,0.681453071593,-0.0470947287977
0.5876,0.608608088078,-0.0470947287977
0.5878,0.571010677231,-0.0470947287977
0.588,0.495815855538,-0.0470947287977
0.5882,0.495815855538,-0.0470947287977
0.5884,0.533413266385,-0.0470947287977
0.5886,0.533413266385,-0.0470947287977
0.5888,0.533413266385,-0.0470947287977
0.589,0.495815855538,-0.0470947287977
0.5892,0.383023622999,-0.0470947287977
0.5894,0.270231390459,-0.0470947287977
0.5896,0.195036568766,-0.0470947287977
0.5898,0.122191585251,-0.0470947287977
0.59,0.122191585251,-0.0470947287977
0.5902,0.122191585251,-0.0470947287977
0.5904,0.122191585251,-0.0470947287977
0.5906,0.122191585251,-0.0470947287977
0.5908,0.0845941744046,-0.0470947287977
0.591,0.0469967635581,-0.0470947287977
0.5912,-0.0657954689814,-0.0470947287977
0.5914,-0.140990290674,-0.0470947287977
0.5916,-0.216185112367,-0.0470947287977
0.5918,-0.253782523214,-0.0470947287977
0.592,-0.216185112367,-0.0470947287977
0.5922,-0.178587701521,-0.0470947287977
0.5924,-0.140990290674,-0.0470947287977
0.5926,-0.178587701521,-0.0470947287977
0.5928,-0.253782523214,-0.0470947287977
0.593,-0.328977344907,-0.0470947287977
0.5932,-0.364224917575,-0.0470947287977
0.5934,-0.439419739268,-0.0470947287977
0.5936,-0.514614560961,-0.0470947287977
0.5938,-0.514614560961,-0.0470947287977
0.594,-0.514614560961,-0.0470947287977
0.5942,-0.514614560961,-0.0470947287977
0.5944,-0.477017150115,-0.0470947287977
0.5946,-0.514614560961,-0.0470947287977
0.5948,-0.589809382654,-0.0470947287977
0.595,-0.665004204347,-0.0470947287977
0.5952,-0.777796436887,-0.0470947287977
0.5954,-0.815393847734,-0.0470947287977
0.5956,-0.815393847734,-0.0470947287977
0.5958,-0.777796436887,-0.0470947287977
0.596,-0.777796436887,-0.0470947287977
0.5962,-0.777796436887,-0.0470947287977
0.5964,-0.777796436887,-0.0470947287977
0.5966,-0.815393847734,-0.0470947287977
0.5968,-0.888238831249,-0.0470947287977
0.597,-0.925836242095,-0.0470947287977
0.5972,-0.963433652942,-0.0470947287977
0.5974,-1.00103106379,-0.0470947287977
0.5976,-0.963433652942,-0.0470947287977
0.5978,-0.925836242095,-0.0470947287977
0.598,-0.850641420402,-0.0470947287977
0.5982,-0.815393847734,-0.0470947287977
0.5984,-0.815393847734,-0.0470947287977
0.5986,-0.888238831249,-0.0470947287977
0.5988,-0.925836242095,-0.0470947287977
0.599,-0.963433652942,-0.0470947287977
0.5992,-0.963433652942,-0.0470947287977
0.5994,-0.925836242095,-0.0470947287977
0.5996,-0.850641420402,-0.0470947287977
0.5998,-0.815393847734,-0.0470947287977
0.6,-0.777796436887,-0.0470947287977
0.6002,-0.777796436887,-0.0470947287977
0.6004,-0.777796436887,-0.0470947287977
0.6006,-0.850641420402,-0.0470947287977
0.6008,-0.888238831249,-0.0470947287977
0.601,-0.925836242095,-0.0470947287977
0.6012,-0.888238831249,-0.0470947287977
0.6014,-0.777796436887,-0.0470947287977
0.6016,-0.702601615194,-0.0470947287977
0.6018,-0.627406793501,-0.0470947287977
0.602,-0.627406793501,-0.0470947287977
0.6022,-0.627406793501,-0.0470947287977
0.6024,-0.627406793501,-0.0470947287977
0.6026,-0.665004204347,-0.0470947287977
0.6028,-0.627406793501,-0.0470947287977
0.603,-0.627406793501,-0.0470947287977
0.6032,-0.589809382654,-0.0470947287977
0.6034,-0.477017150115,-0.0470947287977
0.6036,-0.364224917575,-0.0470947287977
0.6038,-0.328977344907,-0.0470947287977
0.604,-0.29137993406,-0.0470947287977
0.6042,-0.29137993406,-0.0470947287977
0.6044,-0.328977344907,-0.0470947287977
0.6046,-0.328977344907,-0.0470947287977
0.6048,-0.29137993406,-0.0470947287977
0.605,-0.216185112367,-0.0470947287977
0.6052,-0.103392879828,-0.0470947287977
0.6054,-0.0281980581349,-0.0470947287977
0.6056,0.00939935271163,-0.0470947287977
0.6058,0.0469967635581,-0.0470947287977
0.606,0.0469967635581,-0.0470947287977
0.6062,0.0469967635581,-0.0470947287977
0.6064,0.0469967635581,-0.0470947287977
0.6066,0.00939935271163,-0.0470947287977
0.6068,0.0469967635581,-0.0470947287977
0.607,0.15743915792,-0.0470947287977
0.6072,0.232633979613,-0.0470947287977
0.6074,0.307828801306,-0.0470947287977
0.6076,0.383023622999,-0.0470947287977
0.6078,0.345426212152,-0.0470947287977
0.608,0.345426212152,-0.0470947287977
0.6082,0.307828801306,-0.0470947287977
0.6084,0.345426212152,-0.0470947287977
0.6086,0.420621033845,-0.0470947287977
0.6088,0.495815855538,-0.0470947287977
0.609,0.533413266385,-0.0470947287977
0.6092,0.608608088078,-0.0470947287977
0.6094,0.681453071593,-0.0470947287977
0.6096,0.719050482439,-0.0470947287977
0.6098,0.719050482439,-0.0470947287977
0.61,0.719050482439,-0.0470947287977
0.6102,0.646205498924,-0.0470947287977
0.6104,0.681453071593,-0.0470947287977
0.6106,0.719050482439,-0.0470947287977
0.6108,0.831842714979,-0.0470947287977
0.611,0.869440125825,-0.0470947287977
0.6112,0.907037536672,-0.0470947287977
0.6114,0.907037536672,-0.0470947287977
0.6116,0.869440125825,-0.0470947287977
0.6118,0.831842714979,-0.0470947287977
0.612,0.831842714979,-0.0470947287977
0.6122,0.794245304132,-0.0470947287977
0.6124,0.831842714979,-0.0470947287977
0.6126,0.869440125825,-0.0470947287977
0.6128,0.869440125825,-0.0470947287977
0.613,0.944634947518,-0.0470947287977
0.6132,0.982232358365,-0.0470947287977
0.6134,0.982232358365,-0.0470947287977
0.6136,0.907037536672,-0.0470947287977
0.6138,0.869440125825,-0.0470947287977
0.614,0.831842714979,-0.0470947287977
0.6142,0.869440125825,-0.0470947287977
0.6144,0.869440125825,-0.0470947287977
0.6146,0.944634947518,-0.0470947287977
0.6148,0.982232358365,-0.0470947287977
0.615,0.944634947518,-0.0470947287977
0.6152,0.907037536672,-0.0470947287977
0.6154,0.869440125825,-0.0470947287977
0.6156,0.869440125825,-0.0470947287977
0.6158,0.794245304132,-0.0470947287977
0.616,0.794245304132,-0.0470947287977
0.6162,0.756647893286,-0.0470947287977
0.6164,0.756647893286,-0.0470947287977
0.6166,0.831842714979,-0.0470947287977
0.6168,0.831842714979,-0.0470947287977
0.617,0.794245304132,-0.0470947287977
0.6172,0.719050482439,-0.0470947287977
0.6174,0.608608088078,-0.0470947287977
0.6176,0.533413266385,-0.0470947287977
0.6178,0.533413266385,-0.0470947287977
0.618,0.495815855538,-0.0470947287977
0.6182,0.495815855538,-0.0470947287977
0.6184,0.495815855538,-0.0470947287977
0.6186,0.495815855538,-0.0470947287977
0.6188,0.495815855538,-0.0470947287977
0.619,0.420621033845,-0.0470947287977
0.6192,0.383023622999,-0.0470947287977
0.6194,0.270231390459,-0.0470947287977
0.6196,0.232633979613,-0.0470947287977
0.6198,0.195036568766,-0.0470947287977
0.62,0.195036568766,-0.0470947287977
0.6202,0.195036568766,-0.0470947287977
0.6204,0.232633979613,-0.0470947287977
0.6206,0.195036568766,-0.0470947287977
0.6208,0.15743915792,-0.0470947287977
0.621,0.0845941744046,-0.0470947287977
0.6212,0.00939935271163,-0.0470947287977
0.6214,-0.0657954689814,-0.0470947287977
0.6216,-0.103392879828,-0.0470947287977
0.6218,-0.140990290674,-0.0470947287977
0.622,-0.140990290674,-0.0470947287977
0.6222,-0.178587701521,-0.0470947287977
0.6224,-0.178587701521,-0.0470947287977
0.6226,-0.178587701521,-0.0470947287977
0.6228,-0.29137993406,-0.0470947287977
0.623,-0.364224917575,-0.0470947287977
0.6232,-0.514614560961,-0.0470947287977
0.6234,-0.552211971808,-0.0470947287977
0.6236,-0.552211971808,-0.0470947287977
0.6238,-0.552211971808,-0.0470947287977
0.624,-0.552211971808,-0.0470947287977
0.6242,-0.552211971808,-0.0470947287977
0.6244,-0.552211971808,-0.0470947287977
0.6246,-0.627406793501,-0.0470947287977
0.6248,-0.665004204347,-0.0470947287977
0.625,-0.740199026041,-0.0470947287977
0.6252,-0.777796436887,-0.0470947287977
0.6254,-0.777796436887,-0.0470947287977
0.6256,-0.777796436887,-0.0470947287977
0.6258,-0.702601615194,-0.0470947287977
0.626,-0.665004204347,-0.0470947287977
0.6262,-0.665004204347,-0.0470947287977
0.6264,-0.702601615194,-0.0470947287977
0.6266,-0.777796436887,-0.0470947287977
0.6268,-0.888238831249,-0.0470947287977
0.627,-0.925836242095,-0.0470947287977
0.6272,-0.963433652942,-0.0470947287977
0.6274,-0.925836242095,-0.0470947287977
0.6276,-0.925836242095,-0.0470947287977
0.6278,-0.888238831249,-0.0470947287977
0.628,-0.888238831249,-0.0470947287977
0.6282,-0.888238831249,-0.0470947287977
0.6284,-0.925836242095,-0.0470947287977
0.6286,-0.925836242095,-0.0470947287977
0.6288,-1.00103106379,-0.0470947287977
0.629,-1.03862847463,-0.0470947287977
0.6292,-1.03862847463,-0.0470947287977
0.6294,-0.963433652942,-0.0470947287977
0.6296,-0.888238831249,-0.0470947287977
0.6298,-0.888238831249,-0.0470947287977
0.63,-0.850641420402,-0.0470947287977
0.6302,-0.888238831249,-0.0470947287977
0.6304,-0.888238831249,-0.0470947287977
0.6306,-0.925836242095,-0.0470947287977
0.6308,-0.888238831249,-0.0470947287977
0.631,-0.850641420402,-0.0470947287977
0.6312,-0.815393847734,-0.0470947287977
0.6314,-0.777796436887,-0.0470947287977
0.6316,-0.665004204347,-0.0470947287977
0.6318,-0.627406793501,-0.0470947287977
0.632,-0.627406793501,-0.0470947287977
0.6322,-0.627406793501,-0.0470947287977
0.6324,-0.627406793501,-0.0470947287977
0.6326,-0.627406793501,-0.0470947287977
0.6328,-0.627406793501,-0.0470947287977
0.633,-0.589809382654,-0.0470947287977
0.6332,-0.514614560961,-0.0470947287977
0.6334,-0.439419739268,-0.0470947287977
0.6336,-0.364224917575,-0.0470947287977
0.6338,-0.328977344907,-0.0470947287977
0.634,-0.364224917575,-0.0470947287977
0.6342,-0.364224917575,-0.0470947287977
0.6344,-0.401822328422,-0.0470947287977
0.6346,-0.364224917575,-0.0470947287977
0.6348,-0.328977344907,-0.0470947287977
0.635,-0.253782523214,-0.0470947287977
0.6352,-0.178587701521,-0.0470947287977
0.6354,-0.0657954689814,-0.0470947287977
0.6356,-0.0281980581349,-0.0470947287977
0.6358,-0.0281980581349,-0.0470947287977
0.636,-0.0281980581349,-0.0470947287977
0.6362,-0.0281980581349,-0.0470947287977
0.6364,0.00939935271163,-0.0470947287977
0.6366,0.0845941744046,-0.0470947287977
0.6368,0.122191585251,-0.0470947287977
0.637,0.232633979613,-0.0470947287977
0.6372,0.307828801306,-0.0470947287977
0.6374,0.383023622999,-0.0470947287977
0.6376,0.420621033845,-0.0470947287977
0.6378,0.383023622999,-0.0470947287977
0.638,0.383023622999,-0.0470947287977
0.6382,0.383023622999,-0.0470947287977
0.6384,0.383023622999,-0.0470947287977
0.6386,0.420621033845,-0.0470947287977
0.6388,0.495815855538,-0.0470947287977
0.639,0.571010677231,-0.0470947287977
0.6392,0.646205498924,-0.0470947287977
0.6394,0.646205498924,-0.0470947287977
0.6396,0.646205498924,-0.0470947287977
0.6398,0.571010677231,-0.0470947287977
0.64,0.608608088078,-0.0470947287977
0.6402,0.571010677231,-0.0470947287977
0.6404,0.646205498924,-0.0470947287977
0.6406,0.681453071593,-0.0470947287977
0.6408,0.756647893286,-0.0470947287977
0.641,0.831842714979,-0.0470947287977
0.6412,0.869440125825,-0.0470947287977
0.6414,0.869440125825,-0.0470947287977
0.6416,0.869440125825,-0.0470947287977
0.6418,0.831842714979,-0.0470947287977
0.642,0.794245304132,-0.0470947287977
0.6422,0.794245304132,-0.0470947287977
0.6424,0.869440125825,-0.0470947287977
0.6426,0.907037536672,-0.0470947287977
0.6428,0.982232358365,-0.0470947287977
0.643,0.982232358365,-0.0470947287977
0.6432,0.982232358365,-0.0470947287977
0.6434,0.944634947518,-0.0470947287977
0.6436,0.907037536672,-0.0470947287977
0.6438,0.869440125825,-0.0470947287977
0.644,0.869440125825,-0.0470947287977
0.6442,0.869440125825,-0.0470947287977
0.6444,0.869440125825,-0.0470947287977
0.6446,0.944634947518,-0.0470947287977
0.6448,0.944634947518,-0.0470947287977
0.645,0.944634947518,-0.0470947287977
0.6452,0.869440125825,-0.0470947287977
0.6454,0.794245304132,-0.0470947287977
0.6456,0.756647893286,-0.0470947287977
0.6458,0.719050482439,-0.0470947287977
0.646,0.756647893286,-0.0470947287977
0.6462,0.794245304132,-0.0470947287977
0.6464,0.794245304132,-0.0470947287977
0.6466,0.794245304132,-0.0470947287977
0.6468,0.719050482439,-0.0470947287977
0.647,0.719050482439,-0.0470947287977
0.6472,0.681453071593,-0.0470947287977
0.6474,0.608608088078,-0.0470947287977
0.6476,0.571010677231,-0.0470947287977
0.6478,0.571010677231,-0.0470947287977
0.648,0.571010677231,-0.0470947287977
0.6482,0.608608088078,-0.0470947287977
0.6484,0.608608088078,-0.0470947287977
0.6486,0.571010677231,-0.0470947287977
0.6488,0.533413266385,-0.0470947287977
0.649,0.420621033845,-0.0470947287977
0.6492,0.345426212152,-0.0470947287977
0.6494,0.270231390459,-0.0470947287977
0.6496,0.270231390459,-0.0470947287977
0.6498,0.270231390459,-0.0470947287977
0.65,0.232633979613,-0.0470947287977
0.6502,0.232633979613,-0.0470947287977
0.6504,0.15743915792,-0.0470947287977
0.6506,0.122191585251,-0.0470947287977
0.6508,0.0469967635581,-0.0470947287977
0.651,-0.0281980581349,-0.0470947287977
0.6512,-0.103392879828,-0.0470947287977
0.6514,-0.140990290674,-0.0470947287977
0.6516,-0.140990290674,-0.0470947287977
0.6518,-0.103392879828,-0.0470947287977
0.652,-0.103392879828,-0.0470947287977
0.6522,-0.103392879828,-0.0470947287977
0.6524,-0.178587701521,-0.0470947287977
0.6526,-0.178587701521,-0.0470947287977
0.6528,-0.29137993406,-0.0470947287977
0.653,-0.328977344907,-0.0470947287977
0.6532,-0.364224917575,-0.0470947287977
0.6534,-0.401822328422,-0.0470947287977
0.6536,-0.401822328422,-0.0470947287977
0.6538,-0.401822328422,-0.0470947287977
0.654,-0.364224917575,-0.0470947287977
0.6542,-0.401822328422,-0.0470947287977
0.6544,-0.477017150115,-0.0470947287977
0.6546,-0.552211971808,-0.0470947287977
0.6548,-0.665004204347,-0.0470947287977
0.655,-0.740199026041,-0.0470947287977
0.6552,-0.777796436887,-0.0470947287977
0.6554,-0.777796436887,-0.0470947287977
0.6556,-0.740199026041,-0.0470947287977
0.6558,-0.702601615194,-0.0470947287977
0.656,-0.740199026041,-0.0470947287977
0.6562,-0.777796436887,-0.0470947287977
0.6564,-0.815393847734,-0.0470947287977
0.6566,-0.888238831249,-0.0470947287977
0.6568,-0.925836242095,-0.0470947287977
0.657,-0.963433652942,-0.0470947287977
0.6572,-0.963433652942,-0.0470947287977
0.6574,-0.925836242095,-0.0470947287977
0.6576,-0.850641420402,-0.0470947287977
0.6578,-0.815393847734,-0.0470947287977
0.658,-0.815393847734,-0.0470947287977
0.6582,-0.850641420402,-0.0470947287977
0.6584,-0.888238831249,-0.0470947287977
0.6586,-0.925836242095,-0.0470947287977
0.6588,-0.963433652942,-0.0470947287977
0.659,-0.925836242095,-0.0470947287977
0.6592,-0.925836242095,-0.0470947287977
0.6594,-0.850641420402,-0.0470947287977
0.6596,-0.777796436887,-0.0470947287977
0.6598,-0.777796436887,-0.0470947287977
0.66,-0.777796436887,-0.0470947287977
0.6602,-0.815393847734,-0.0470947287977
0.6604,-0.850641420402,-0.0470947287977
0.6606,-0.888238831249,-0.0470947287977
0.6608,-0.888238831249,-0.0470947287977
0.661,-0.888238831249,-0.0470947287977
0.6612,-0.815393847734,-0.0470947287977
0.6614,-0.777796436887,-0.0470947287977
0.6616,-0.702601615194,-0.0470947287977
0.6618,-0.702601615194,-0.0470947287977
0.662,-0.702601615194,-0.0470947287977
0.6622,-0.740199026041,-0.0470947287977
0.6624,-0.740199026041,-0.0470947287977
0.6626,-0.740199026041,-0.0470947287977
0.6628,-0.702601615194,-0.0470947287977
0.663,-0.627406793501,-0.0470947287977
0.6632,-0.552211971808,-0.0470947287977
0.6634,-0.477017150115,-0.0470947287977
0.6636,-0.401822328422,-0.0470947287977
0.6638,-0.328977344907,-0.0470947287977
0.664,-0.364224917575,-0.0470947287977
0.6642,-0.364224917575,-0.0470947287977
0.6644,-0.401822328422,-0.0470947287977
0.6646,-0.328977344907,-0.0470947287977
0.6648,-0.253782523214,-0.0470947287977
0.665,-0.140990290674,-0.0470947287977
0.6652,-0.0657954689814,-0.0470947287977
0.6654,-0.0281980581349,-0.0470947287977
0.6656,-0.0281980581349,-0.0470947287977
0.6658,-0.0281980581349,-0.0470947287977
0.666,-0.0657954689814,-0.0470947287977
0.6662,-0.0657954689814,-0.0470947287977
0.6664,-0.0281980581349,-0.0470947287977
0.6666,-0.0281980581349,-0.0470947287977
0.6668,0.0469967635581,-0.0470947287977
0.667,0.122191585251,-0.0470947287977
0.6672,0.195036568766,-0.0470947287977
0.6674,0.270231390459,-0.0470947287977
0.6676,0.232633979613,-0.0470947287977
0.6678,0.232633979613,-0.0470947287977
0.668,0.270231390459,-0.0470947287977
0.6682,0.270231390459,-0.0470947287977
0.6684,0.345426212152,-0.0470947287977
0.6686,0.420621033845,-0.0470947287977
0.6688,0.495815855538,-0.0470947287977
0.669,0.571010677231,-0.0470947287977
0.6692,0.608608088078,-0.0470947287977
0.6694,0.646205498924,-0.0470947287977
0.6696,0.646205498924,-0.0470947287977
0.6698,0.608608088078,-0.0470947287977
0.67,0.608608088078,-0.0470947287977
0.6702,0.646205498924,-0.0470947287977
0.6704,0.681453071593,-0.0470947287977
0.6706,0.756647893286,-0.0470947287977
0.6708,0.794245304132,-0.0470947287977
0.671,0.831842714979,-0.0470947287977
0.6712,0.831842714979,-0.0470947287977
0.6714,0.794245304132,-0.0470947287977
0.6716,0.794245304132,-0.0470947287977
0.6718,0.756647893286,-0.0470947287977
0.672,0.719050482439,-0.0470947287977
0.6722,0.756647893286,-0.0470947287977
0.6724,0.794245304132,-0.0470947287977
0.6726,0.831842714979,-0.0470947287977
0.6728,0.869440125825,-0.0470947287977
0.673,0.869440125825,-0.0470947287977
0.6732,0.869440125825,-0.0470947287977
0.6734,0.831842714979,-0.0470947287977
0.6736,0.794245304132,-0.0470947287977
0.6738,0.794245304132,-0.0470947287977
0.674,0.831842714979,-0.0470947287977
0.6742,0.869440125825,-0.0470947287977
0.6744,0.907037536672,-0.0470947287977
0.6746,0.944634947518,-0.0470947287977
0.6748,0.907037536672,-0.0470947287977
0.675,0.907037536672,-0.0470947287977
0.6752,0.869440125825,-0.0470947287977
0.6754,0.831842714979,-0.0470947287977
0.6756,0.756647893286,-0.0470947287977
0.6758,0.794245304132,-0.0470947287977
0.676,0.794245304132,-0.0470947287977
0.6762,0.831842714979,-0.0470947287977
0.6764,0.831842714979,-0.0470947287977
0.6766,0.794245304132,-0.0470947287977
0.6768,0.756647893286,-0.0470947287977
0.677,0.681453071593,-0.0470947287977
0.6772,0.571010677231,-0.0470947287977
0.6774,0.533413266385,-0.0470947287977
0.6776,0.495815855538,-0.0470947287977
0.6778,0.495815855538,-0.0470947287977
0.678,0.533413266385,-0.0470947287977
0.6782,0.533413266385,-0.0470947287977
0.6784,0.533413266385,-0.0470947287977
0.6786,0.495815855538,-0.0470947287977
0.6788,0.420621033845,-0.0470947287977
0.679,0.345426212152,-0.0470947287977
0.6792,0.307828801306,-0.0470947287977
0.6794,0.232633979613,-0.0470947287977
0.6796,0.232633979613,-0.0470947287977
0.6798,0.270231390459,-0.0470947287977
0.68,0.307828801306,-0.0470947287977
0.6802,0.307828801306,-0.0470947287977
0.6804,0.270231390459,-0.0470947287977
0.6806,0.232633979613,-0.0470947287977
0.6808,0.122191585251,-0.0470947287977
0.681,0.0845941744046,-0.0470947287977
0.6812,0.00939935271163,-0.0470947287977
0.6814,-0.0281980581349,-0.0470947287977
0.6816,-0.0281980581349,-0.0470947287977
0.6818,-0.0281980581349,-0.0470947287977
0.682,-0.0281980581349,-0.0470947287977
0.6822,-0.0281980581349,-0.0470947287977
0.6824,-0.178587701521,-0.0470947287977
0.6826,-0.253782523214,-0.0470947287977
0.6828,-0.328977344907,-0.0470947287977
0.683,-0.401822328422,-0.0470947287977
0.6832,-0.439419739268,-0.0470947287977
0.6834,-0.439419739268,-0.0470947287977
0.6836,-0.401822328422,-0.0470947287977
0.6838,-0.401822328422,-0.0470947287977
0.684,-0.401822328422,-0.0470947287977
0.6842,-0.401822328422,-0.0470947287977
0.6844,-0.514614560961,-0.0470947287977
0.6846,-0.589809382654,-0.0470947287977
0.6848,-0.627406793501,-0.0470947287977
0.685,-0.627406793501,-0.0470947287977
0.6852,-0.627406793501,-0.0470947287977
0.6854,-0.627406793501,-0.0470947287977
0.6856,-0.589809382654,-0.0470947287977
0.6858,-0.552211971808,-0.0470947287977
0.686,-0.552211971808,-0.0470947287977
0.6862,-0.627406793501,-0.0470947287977
0.6864,-0.702601615194,-0.0470947287977
0.6866,-0.777796436887,-0.0470947287977
0.6868,-0.815393847734,-0.0470947287977
0.687,-0.815393847734,-0.0470947287977
0.6872,-0.815393847734,-0.0470947287977
0.6874,-0.777796436887,-0.0470947287977
0.6876,-0.777796436887,-0.0470947287977
0.6878,-0.740199026041,-0.0470947287977
0.688,-0.815393847734,-0.0470947287977
0.6882,-0.888238831249,-0.0470947287977
0.6884,-0.925836242095,-0.0470947287977
0.6886,-0.963433652942,-0.0470947287977
0.6888,-0.963433652942,-0.0470947287977
0.689,-0.963433652942,-0.0470947287977
0.6892,-0.925836242095,-0.0470947287977
0.6894,-0.815393847734,-0.0470947287977
0.6896,-0.777796436887,-0.0470947287977
0.6898,-0.777796436887,-0.0470947287977
0.69,-0.777796436887,-0.0470947287977
0.6902,-0.815393847734,-0.0470947287977
0.6904,-0.850641420402,-0.0470947287977
0.6906,-0.850641420402,-0.0470947287977
0.6908,-0.777796436887,-0.0470947287977
0.691,-0.740199026041,-0.0470947287977
0.6912,-0.665004204347,-0.0470947287977
0.6914,-0.627406793501,-0.0470947287977
0.6916,-0.589809382654,-0.0470947287977
0.6918,-0.589809382654,-0.0470947287977
0.692,-0.627406793501,-0.0470947287977
0.6922,-0.627406793501,-0.0470947287977
0.6924,-0.627406793501,-0.0470947287977
0.6926,-0.627406793501,-0.0470947287977
0.6928,-0.627406793501,-0.0470947287977
0.693,-0.514614560961,-0.0470947287977
0.6932,-0.477017150115,-0.0470947287977
0.6934,-0.439419739268,-0.0470947287977
0.6936,-0.477017150115,-0.0470947287977
0.6938,-0.477017150115,-0.0470947287977
0.694,-0.477017150115,-0.0470947287977
0.6942,-0.477017150115,-0.0470947287977
0.6944,-0.477017150115,-0.0470947287977
0.6946,-0.401822328422,-0.0470947287977
0.6948,-0.328977344907,-0.0470947287977
0.695,-0.216185112367,-0.0470947287977
0.6952,-0.178587701521,-0.0470947287977
0.6954,-0.103392879828,-0.0470947287977
0.6956,-0.0657954689814,-0.0470947287977
0.6958,-0.103392879828,-0.0470947287977
0.696,-0.0657954689814,-0.0470947287977
0.6962,-0.0657954689814,-0.0470947287977
0.6964,-0.0281980581349,-0.0470947287977
0.6966,0.0845941744046,-0.0470947287977
0.6968,0.122191585251,-0.0470947287977
0.697,0.232633979613,-0.0470947287977
0.6972,0.232633979613,-0.0470947287977
0.6974,0.270231390459,-0.0470947287977
0.6976,0.232633979613,-0.0470947287977
0.6978,0.195036568766,-0.0470947287977
0.698,0.232633979613,-0.0470947287977
0.6982,0.232633979613,-0.0470947287977
0.6984,0.270231390459,-0.0470947287977
0.6986,0.345426212152,-0.0470947287977
0.6988,0.458218444692,-0.0470947287977
0.699,0.458218444692,-0.0470947287977
0.6992,0.458218444692,-0.0470947287977
0.6994,0.458218444692,-0.0470947287977
0.6996,0.420621033845,-0.0470947287977
0.6998,0.420621033845,-0.0470947287977
0.7,0.458218444692,-0.0470947287977
0.7002,0.495815855538,-0.0470947287977
0.7004,0.571010677231,-0.0470947287977
0.7006,0.608608088078,-0.0470947287977
0.7008,0.681453071593,-0.0470947287977
0.701,0.719050482439,-0.0470947287977
0.7012,0.719050482439,-0.0470947287977
0.7014,0.719050482439,-0.0470947287977
0.7016,0.681453071593,-0.0470947287977
0.7018,0.681453071593,-0.0470947287977
0.702,0.719050482439,-0.0470947287977
0.7022,0.756647893286,-0.0470947287977
0.7024,0.869440125825,-0.0470947287977
0.7026,0.907037536672,-0.0470947287977
0.7028,0.907037536672,-0.0470947287977
0.703,0.907037536672,-0.0470947287977
0.7032,0.831842714979,-0.0470947287977
0.7034,0.794245304132,-0.0470947287977
0.7036,0.756647893286,-0.0470947287977
0.7038,0.756647893286,-0.0470947287977
0.704,0.756647893286,-0.0470947287977
0.7042,0.794245304132,-0.0470947287977
0.7044,0.831842714979,-0.0470947287977
0.7046,0.831842714979,-0.0470947287977
0.7048,0.794245304132,-0.0470947287977
0.705,0.794245304132,-0.0470947287977
0.7052,0.719050482439,-0.0470947287977
0.7054,0.681453071593,-0.0470947287977
0.7056,0.646205498924,-0.0470947287977
0.7058,0.681453071593,-0.0470947287977
0.706,0.681453071593,-0.0470947287977
0.7062,0.719050482439,-0.0470947287977
0.7064,0.756647893286,-0.0470947287977
0.7066,0.719050482439,-0.0470947287977
0.7068,0.681453071593,-0.0470947287977
0.707,0.608608088078,-0.0470947287977
0.7072,0.608608088078,-0.0470947287977
0.7074,0.533413266385,-0.0470947287977
0.7076,0.533413266385,-0.0470947287977
0.7078,0.571010677231,-0.0470947287977
0.708,0.571010677231,-0.0470947287977
0.7082,0.608608088078,-0.0470947287977
0.7084,0.571010677231,-0.0470947287977
0.7086,0.495815855538,-0.0470947287977
0.7088,0.420621033845,-0.0470947287977
0.709,0.345426212152,-0.0470947287977
0.7092,0.270231390459,-0.0470947287977
0.7094,0.307828801306,-0.0470947287977
0.7096,0.270231390459,-0.0470947287977
0.7098,0.307828801306,-0.0470947287977
0.71,0.270231390459,-0.0470947287977
0.7102,0.232633979613,-0.0470947287977
0.7104,0.195036568766,-0.0470947287977
0.7106,0.122191585251,-0.0470947287977
0.7108,0.0469967635581,-0.0470947287977
0.711,0.00939935271163,-0.0470947287977
0.7112,-0.0657954689814,-0.0470947287977
0.7114,-0.0281980581349,-0.0470947287977
0.7116,-0.0281980581349,-0.0470947287977
0.7118,0.00939935271163,-0.0470947287977
0.712,0.00939935271163,-0.0470947287977
0.7122,-0.0281980581349,-0.0470947287977
0.7124,-0.103392879828,-0.0470947287977
0.7126,-0.178587701521,-0.0470947287977
0.7128,-0.216185112367,-0.0470947287977
0.713,-0.253782523214,-0.0470947287977
0.7132,-0.29137993406,-0.0470947287977
0.7134,-0.253782523214,-0.0470947287977
0.7136,-0.253782523214,-0.0470947287977
0.7138,-0.29137993406,-0.0470947287977
0.714,-0.29137993406,-0.0470947287977
0.7142,-0.328977344907,-0.0470947287977
0.7144,-0.439419739268,-0.0470947287977
0.7146,-0.514614560961,-0.0470947287977
0.7148,-0.589809382654,-0.0470947287977
0.715,-0.589809382654,-0.0470947287977
0.7152,-0.552211971808,-0.0470947287977
0.7154,-0.514614560961,-0.0470947287977
0.7156,-0.514614560961,-0.0470947287977
0.7158,-0.514614560961,-0.0470947287977
0.716,-0.589809382654,-0.0470947287977
0.7162,-0.627406793501,-0.0470947287977
0.7164,-0.702601615194,-0.0470947287977
0.7166,-0.702601615194,-0.0470947287977
0.7168,-0.702601615194,-0.0470947287977
0.717,-0.702601615194,-0.0470947287977
0.7172,-0.665004204347,-0.0470947287977
0.7174,-0.627406793501,-0.0470947287977
0.7176,-0.627406793501,-0.0470947287977
0.7178,-0.627406793501,-0.0470947287977
0.718,-0.665004204347,-0.0470947287977
0.7182,-0.702601615194,-0.0470947287977
0.7184,-0.740199026041,-0.0470947287977
0.7186,-0.777796436887,-0.0470947287977
0.7188,-0.777796436887,-0.0470947287977
0.719,-0.740199026041,-0.0470947287977
0.7192,-0.665004204347,-0.0470947287977
0.7194,-0.665004204347,-0.0470947287977
0.7196,-0.665004204347,-0.0470947287977
0.7198,-0.665004204347,-0.0470947287977
0.72,-0.702601615194,-0.0470947287977
0.7202,-0.777796436887,-0.0470947287977
0.7204,-0.777796436887,-0.0470947287977
0.7206,-0.777796436887,-0.0470947287977
0.7208,-0.702601615194,-0.0470947287977
0.721,-0.665004204347,-0.0470947287977
0.7212,-0.627406793501,-0.0470947287977
0.7214,-0.589809382654,-0.0470947287977
0.7216,-0.589809382654,-0.0470947287977
0.7218,-0.627406793501,-0.0470947287977
0.722,-0.627406793501,-0.0470947287977
0.7222,-0.627406793501,-0.0470947287977
0.7224,-0.627406793501,-0.0470947287977
0.7226,-0.552211971808,-0.0470947287977
0.7228,-0.514614560961,-0.0470947287977
0.723,-0.439419739268,-0.0470947287977
0.7232,-0.364224917575,-0.0470947287977
0.7234,-0.328977344907,-0.0470947287977
0.7236,-0.328977344907,-0.0470947287977
0.7238,-0.364224917575,-0.0470947287977
0.724,-0.401822328422,-0.0470947287977
0.7242,-0.401822328422,-0.0470947287977
0.7244,-0.364224917575,-0.0470947287977
0.7246,-0.328977344907,-0.0470947287977
0.7248,-0.29137993406,-0.0470947287977
0.725,-0.216185112367,-0.0470947287977
0.7252,-0.178587701521,-0.0470947287977
0.7254,-0.178587701521,-0.0470947287977
0.7256,-0.178587701521,-0.0470947287977
0.7258,-0.178587701521,-0.0470947287977
0.726,-0.178587701521,-0.0470947287977
0.7262,-0.178587701521,-0.0470947287977
0.7264,-0.103392879828,-0.0470947287977
0.7266,-0.0281980581349,-0.0470947287977
0.7268,0.0845941744046,-0.0470947287977
0.727,0.0845941744046,-0.0470947287977
0.7272,0.122191585251,-0.0470947287977
0.7274,0.122191585251,-0.0470947287977
0.7276,0.0845941744046,-0.0470947287977
0.7278,0.122191585251,-0.0470947287977
0.728,0.15743915792,-0.0470947287977
0.7282,0.195036568766,-0.0470947287977
0.7284,0.270231390459,-0.0470947287977
0.7286,0.307828801306,-0.0470947287977
0.7288,0.383023622999,-0.0470947287977
0.729,0.420621033845,-0.0470947287977
0.7292,0.420621033845,-0.0470947287977
0.7294,0.383023622999,-0.0470947287977
0.7296,0.345426212152,-0.0470947287977
0.7298,0.345426212152,-0.0470947287977
0.73,0.383023622999,-0.0470947287977
0.7302,0.420621033845,-0.0470947287977
0.7304,0.533413266385,-0.0470947287977
0.7306,0.533413266385,-0.0470947287977
0.7308,0.571010677231,-0.0470947287977
0.731,0.571010677231,-0.0470947287977
0.7312,0.571010677231,-0.0470947287977
0.7314,0.533413266385,-0.0470947287977
0.7316,0.533413266385,-0.0470947287977
0.7318,0.533413266385,-0.0470947287977
0.732,0.571010677231,-0.0470947287977
0.7322,0.608608088078,-0.0470947287977
0.7324,0.681453071593,-0.0470947287977
0.7326,0.681453071593,-0.0470947287977
0.7328,0.719050482439,-0.0470947287977
0.733,0.681453071593,-0.0470947287977
0.7332,0.681453071593,-0.0470947287977
0.7334,0.646205498924,-0.0470947287977
0.7336,0.608608088078,-0.0470947287977
0.7338,0.681453071593,-0.0470947287977
0.734,0.681453071593,-0.0470947287977
0.7342,0.719050482439,-0.0470947287977
0.7344,0.756647893286,-0.0470947287977
0.7346,0.719050482439,-0.0470947287977
0.7348,0.719050482439,-0.0470947287977
0.735,0.681453071593,-0.0470947287977
0.7352,0.608608088078,-0.0470947287977
0.7354,0.608608088078,-0.0470947287977
0.7356,0.571010677231,-0.0470947287977
0.7358,0.608608088078,-0.0470947287977
0.736,0.646205498924,-0.0470947287977
0.7362,0.681453071593,-0.0470947287977
0.7364,0.681453071593,-0.0470947287977
0.7366,0.608608088078,-0.0470947287977
0.7368,0.571010677231,-0.0470947287977
0.737,0.495815855538,-0.0470947287977
0.7372,0.458218444692,-0.0470947287977
0.7374,0.458218444692,-0.0470947287977
0.7376,0.458218444692,-0.0470947287977
0.7378,0.495815855538,-0.0470947287977
0.738,0.533413266385,-0.0470947287977
0.7382,0.533413266385,-0.0470947287977
0.7384,0.458218444692,-0.0470947287977
0.7386,0.420621033845,-0.0470947287977
0.7388,0.383023622999,-0.0470947287977
0.739,0.307828801306,-0.0470947287977
0.7392,0.270231390459,-0.0470947287977
0.7394,0.270231390459,-0.0470947287977
0.7396,0.307828801306,-0.0470947287977
0.7398,0.307828801306,-0.0470947287977
0.74,0.307828801306,-0.0470947287977
0.7402,0.270231390459,-0.0470947287977
0.7404,0.195036568766,-0.0470947287977
0.7406,0.122191585251,-0.0470947287977
0.7408,0.0845941744046,-0.0470947287977
0.741,0.0845941744046,-0.0470947287977
0.7412,0.00939935271163,-0.0470947287977
0.7414,0.00939935271163,-0.0470947287977
0.7416,0.00939935271163,-0.0470947287977
0.7418,0.00939935271163,-0.0470947287977
0.742,0.00939935271163,-0.0470947287977
0.7422,-0.0281980581349,-0.0470947287977
0.7424,-0.0657954689814,-0.0470947287977
0.7426,-0.178587701521,-0.0470947287977
0.7428,-0.178587701521,-0.0470947287977
0.743,-0.178587701521,-0.0470947287977
0.7432,-0.178587701521,-0.0470947287977
0.7434,-0.178587701521,-0.0470947287977
0.7436,-0.140990290674,-0.0470947287977
0.7438,-0.178587701521,-0.0470947287977
0.744,-0.216185112367,-0.0470947287977
0.7442,-0.29137993406,-0.0470947287977
0.7444,-0.328977344907,-0.0470947287977
0.7446,-0.364224917575,-0.0470947287977
0.7448,-0.401822328422,-0.0470947287977
0.745,-0.401822328422,-0.0470947287977
0.7452,-0.401822328422,-0.0470947287977
0.7454,-0.401822328422,-0.0470947287977
0.7456,-0.401822328422,-0.0470947287977
0.7458,-0.401822328422,-0.0470947287977
0.746,-0.439419739268,-0.0470947287977
0.7462,-0.514614560961,-0.0470947287977
0.7464,-0.552211971808,-0.0470947287977
0.7466,-0.589809382654,-0.0470947287977
0.7468,-0.589809382654,-0.0470947287977
0.747,-0.514614560961,-0.0470947287977
0.7472,-0.514614560961,-0.0470947287977
0.7474,-0.514614560961,-0.0470947287977
0.7476,-0.514614560961,-0.0470947287977
0.7478,-0.514614560961,-0.0470947287977
0.748,-0.552211971808,-0.0470947287977
0.7482,-0.589809382654,-0.0470947287977
0.7484,-0.627406793501,-0.0470947287977
0.7486,-0.627406793501,-0.0470947287977
0.7488,-0.589809382654,-0.0470947287977
0.749,-0.552211971808,-0.0470947287977
0.7492,-0.514614560961,-0.0470947287977
0.7494,-0.514614560961,-0.0470947287977
0.7496,-0.514614560961,-0.0470947287977
0.7498,-0.589809382654,-0.0470947287977
0.75,-0.627406793501,-0.0470947287977
0.7502,-0.627406793501,-0.0470947287977
0.7504,-0.627406793501,-0.0470947287977
0.7506,-0.589809382654,-0.0470947287977
0.7508,-0.552211971808,-0.0470947287977
0.751,-0.514614560961,-0.0470947287977
0.7512,-0.514614560961,-0.0470947287977
0.7514,-0.514614560961,-0.0470947287977
0.7516,-0.514614560961,-0.0470947287977
0.7518,-0.514614560961,-0.0470947287977
0.752,-0.552211971808,-0.0470947287977
0.7522,-0.514614560961,-0.0470947287977
0.7524,-0.514614560961,-0.0470947287977
0.7526,-0.477017150115,-0.0470947287977
0.7528,-0.364224917575,-0.0470947287977
0.753,-0.328977344907,-0.0470947287977
0.7532,-0.328977344907,-0.0470947287977
0.7534,-0.328977344907,-0.0470947287977
0.7536,-0.328977344907,-0.0470947287977
0.7538,-0.328977344907,-0.0470947287977
0.754,-0.328977344907,-0.0470947287977
0.7542,-0.29137993406,-0.0470947287977
0.7544,-0.253782523214,-0.0470947287977
0.7546,-0.216185112367,-0.0470947287977
0.7548,-0.140990290674,-0.0470947287977
0.755,-0.103392879828,-0.0470947287977
0.7552,-0.103392879828,-0.0470947287977
0.7554,-0.140990290674,-0.0470947287977
0.7556,-0.178587701521,-0.0470947287977
0.7558,-0.178587701521,-0.0470947287977
0.756,-0.178587701521,-0.0470947287977
0.7562,-0.140990290674,-0.0470947287977
0.7564,-0.140990290674,-0.0470947287977
0.7566,-0.0281980581349,-0.0470947287977
0.7568,0.00939935271163,-0.0470947287977
0.757,0.00939935271163,-0.0470947287977
0.7572,0.00939935271163,-0.0470947287977
0.7574,-0.0281980581349,-0.0470947287977
0.7576,0.00939935271163,-0.0470947287977
0.7578,0.00939935271163,-0.0470947287977
0.758,0.00939935271163,-0.0470947287977
0.7582,0.122191585251,-0.0470947287977
0.7584,0.195036568766,-0.0470947287977
0.7586,0.232633979613,-0.0470947287977
0.7588,0.270231390459,-0.0470947287977
0.759,0.270231390459,-0.0470947287977
0.7592,0.270231390459,-0.0470947287977
0.7594,0.232633979613,-0.0470947287977
0.7596,0.232633979613,-0.0470947287977
0.7598,0.270231390459,-0.0470947287977
0.76,0.307828801306,-0.0470947287977
0.7602,0.345426212152,-0.0470947287977
0.7604,0.420621033845,-0.0470947287977
0.7606,0.420621033845,-0.0470947287977
0.7608,0.420621033845,-0.0470947287977
0.761,0.420621033845,-0.0470947287977
0.7612,0.383023622999,-0.0470947287977
0.7614,0.345426212152,-0.0470947287977
0.7616,0.345426212152,-0.0470947287977
0.7618,0.383023622999,-0.0470947287977
0.762,0.420621033845,-0.0470947287977
0.7622,0.495815855538,-0.0470947287977
0.7624,0.495815855538,-0.0470947287977
0.7626,0.533413266385,-0.0470947287977
0.7628,0.495815855538,-0.0470947287977
0.763,0.458218444692,-0.0470947287977
0.7632,0.420621033845,-0.0470947287977
0.7634,0.420621033845,-0.0470947287977
0.7636,0.420621033845,-0.0470947287977
0.7638,0.495815855538,-0.0470947287977
0.764,0.533413266385,-0.0470947287977
0.7642,0.571010677231,-0.0470947287977
0.7644,0.608608088078,-0.0470947287977
0.7646,0.533413266385,-0.0470947287977
0.7648,0.533413266385,-0.0470947287977
0.765,0.495815855538,-0.0470947287977
0.7652,0.458218444692,-0.0470947287977
0.7654,0.458218444692,-0.0470947287977
0.7656,0.495815855538,-0.0470947287977
0.7658,0.533413266385,-0.0470947287977
0.766,0.533413266385,-0.0470947287977
0.7662,0.533413266385,-0.0470947287977
0.7664,0.495815855538,-0.0470947287977
0.7666,0.495815855538,-0.0470947287977
0.7668,0.420621033845,-0.0470947287977
0.767,0.383023622999,-0.0470947287977
0.7672,0.345426212152,-0.0470947287977
0.7674,0.345426212152,-0.0470947287977
0.7676,0.383023622999,-0.0470947287977
0.7678,0.383023622999,-0.0470947287977
0.768,0.383023622999,-0.0470947287977
0.7682,0.383023622999,-0.0470947287977
0.7684,0.345426212152,-0.0470947287977
0.7686,0.270231390459,-0.0470947287977
0.7688,0.232633979613,-0.0470947287977
0.769,0.232633979613,-0.0470947287977
0.7692,0.195036568766,-0.0470947287977
0.7694,0.232633979613,-0.0470947287977
0.7696,0.232633979613,-0.0470947287977
0.7698,0.270231390459,-0.0470947287977
0.77,0.232633979613,-0.0470947287977
0.7702,0.232633979613,-0.0470947287977
0.7704,0.195036568766,-0.0470947287977
0.7706,0.0845941744046,-0.0470947287977
0.7708,0.0469967635581,-0.0470947287977
0.771,0.0469967635581,-0.0470947287977
0.7712,0.0845941744046,-0.0470947287977
0.7714,0.0845941744046,-0.0470947287977
0.7716,0.0845941744046,-0.0470947287977
0.7718,0.0845941744046,-0.0470947287977
0.772,0.0469967635581,-0.0470947287977
0.7722,-0.0281980581349,-0.0470947287977
0.7724,-0.103392879828,-0.0470947287977
0.7726,-0.140990290674,-0.0470947287977
0.7728,-0.178587701521,-0.0470947287977
0.773,-0.178587701521,-0.0470947287977
0.7732,-0.178587701521,-0.0470947287977
0.7734,-0.140990290674,-0.0470947287977
0.7736,-0.140990290674,-0.0470947287977
0.7738,-0.140990290674,-0.0470947287977
0.774,-0.178587701521,-0.0470947287977
0.7742,-0.253782523214,-0.0470947287977
0.7744,-0.29137993406,-0.0470947287977
0.7746,-0.328977344907,-0.0470947287977
0.7748,-0.29137993406,-0.0470947287977
0.775,-0.29137993406,-0.0470947287977
0.7752,-0.216185112367,-0.0470947287977
0.7754,-0.216185112367,-0.0470947287977
0.7756,-0.216185112367,-0.0470947287977
0.7758,-0.29137993406,-0.0470947287977
0.776,-0.328977344907,-0.0470947287977
0.7762,-0.364224917575,-0.0470947287977
0.7764,-0.401822328422,-0.0470947287977
0.7766,-0.401822328422,-0.0470947287977
0.7768,-0.401822328422,-0.0470947287977
0.777,-0.364224917575,-0.0470947287977
0.7772,-0.328977344907,-0.0470947287977
0.7774,-0.29137993406,-0.0470947287977
0.7776,-0.328977344907,-0.0470947287977
0.7778,-0.364224917575,-0.0470947287977
0.778,-0.401822328422,-0.0470947287977
0.7782,-0.439419739268,-0.0470947287977
0.7784,-0.439419739268,-0.0470947287977
0.7786,-0.401822328422,-0.0470947287977
0.7788,-0.364224917575,-0.0470947287977
0.779,-0.364224917575,-0.0470947287977
0.7792,-0.364224917575,-0.0470947287977
0.7794,-0.328977344907,-0.0470947287977
0.7796,-0.364224917575,-0.0470947287977
0.7798,-0.401822328422,-0.0470947287977
0.78,-0.401822328422,-0.0470947287977
0.7802,-0.477017150115,-0.0470947287977
0.7804,-0.439419739268,-0.0470947287977
0.7806,-0.401822328422,-0.0470947287977
0.7808,-0.364224917575,-0.0470947287977
0.781,-0.328977344907,-0.0470947287977
0.7812,-0.328977344907,-0.0470947287977
0.7814,-0.328977344907,-0.0470947287977
0.7816,-0.328977344907,-0.0470947287977
0.7818,-0.364224917575,-0.0470947287977
0.782,-0.364224917575,-0.0470947287977
0.7822,-0.364224917575,-0.0470947287977
0.7824,-0.328977344907,-0.0470947287977
0.7826,-0.29137993406,-0.0470947287977
0.7828,-0.253782523214,-0.0470947287977
0.783,-0.216185112367,-0.0470947287977
0.7832,-0.178587701521,-0.0470947287977
0.7834,-0.216185112367,-0.0470947287977
0.7836,-0.216185112367,-0.0470947287977
0.7838,-0.29137993406,-0.0470947287977
0.784,-0.29137993406,-0.0470947287977
0.7842,-0.216185112367,-0.0470947287977
0.7844,-0.178587701521,-0.0470947287977
0.7846,-0.103392879828,-0.0470947287977
0.7848,-0.0657954689814,-0.0470947287977
0.785,-0.0657954689814,-0.0470947287977
0.7852,-0.0657954689814,-0.0470947287977
0.7854,-0.103392879828,-0.0470947287977
0.7856,-0.103392879828,-0.0470947287977
0.7858,-0.103392879828,-0.0470947287977
0.786,-0.103392879828,-0.0470947287977
0.7862,-0.0657954689814,-0.0470947287977
0.7864,0.00939935271163,-0.0470947287977
0.7866,0.0469967635581,-0.0470947287977
0.7868,0.0845941744046,-0.0470947287977
0.787,0.0469967635581,-0.0470947287977
0.7872,0.0469967635581,-0.0470947287977
0.7874,0.00939935271163,-0.0470947287977
0.7876,0.00939935271163,-0.0470947287977
0.7878,0.0469967635581,-0.0470947287977
0.788,0.0845941744046,-0.0470947287977
0.7882,0.122191585251,-0.0470947287977
0.7884,0.195036568766,-0.0470947287977
0.7886,0.195036568766,-0.0470947287977
0.7888,0.195036568766,-0.0470947287977
0.789,0.195036568766,-0.0470947287977
0.7892,0.195036568766,-0.0470947287977
0.7894,0.122191585251,-0.0470947287977
0.7896,0.122191585251,-0.0470947287977
0.7898,0.195036568766,-0.0470947287977
0.79,0.270231390459,-0.0470947287977
0.7902,0.270231390459,-0.0470947287977
0.7904,0.307828801306,-0.0470947287977
0.7906,0.345426212152,-0.0470947287977
0.7908,0.270231390459,-0.0470947287977
0.791,0.270231390459,-0.0470947287977
0.7912,0.232633979613,-0.0470947287977
0.7914,0.270231390459,-0.0470947287977
0.7916,0.270231390459,-0.0470947287977
0.7918,0.270231390459,-0.0470947287977
0.792,0.307828801306,-0.0470947287977
0.7922,0.383023622999,-0.0470947287977
0.7924,0.345426212152,-0.0470947287977
0.7926,0.345426212152,-0.0470947287977
0.7928,0.307828801306,-0.0470947287977
0.793,0.270231390459,-0.0470947287977
0.7932,0.270231390459,-0.0470947287977
0.7934,0.270231390459,-0.0470947287977
0.7936,0.307828801306,-0.0470947287977
0.7938,0.383023622999,-0.0470947287977
0.794,0.383023622999,-0.0470947287977
0.7942,0.420621033845,-0.0470947287977
0.7944,0.383023622999,-0.0470947287977
0.7946,0.345426212152,-0.0470947287977
0.7948,0.307828801306,-0.0470947287977
0.795,0.270231390459,-0.0470947287977
0.7952,0.270231390459,-0.0470947287977
0.7954,0.307828801306,-0.0470947287977
0.7956,0.307828801306,-0.0470947287977
0.7958,0.345426212152,-0.0470947287977
0.796,0.345426212152,-0.0470947287977
0.7962,0.345426212152,-0.0470947287977
0.7964,0.307828801306,-0.0470947287977
0.7966,0.270231390459,-0.0470947287977
0.7968,0.195036568766,-0.0470947287977
0.797,0.195036568766,-0.0470947287977
0.7972,0.195036568766,-0.0470947287977
0.7974,0.232633979613,-0.0470947287977
0.7976,0.232633979613,-0.0470947287977
0.7978,0.232633979613,-0.0470947287977
0.798,0.232633979613,-0.0470947287977
0.7982,0.232633979613,-0.0470947287977
0.7984,0.195036568766,-0.0470947287977
0.7986,0.122191585251,-0.0470947287977
0.7988,0.0845941744046,-0.0470947287977
0.799,0.0845941744046,-0.0470947287977
0.7992,0.0845941744046,-0.0470947287977
0.7994,0.122191585251,-0.0470947287977
0.7996,0.122191585251,-0.0470947287977
0.7998,0.15743915792,-0.0470947287977
0.8,0.122191585251,-0.0470947287977
0.8002,0.0845941744046,-0.0470947287977
0.8004,0.00939935271163,-0.0470947287977
0.8006,-0.0281980581349,-0.0470947287977
0.8008,-0.0281980581349,-0.0470947287977
0.801,-0.0281980581349,-0.0470947287977
0.8012,0.00939935271163,-0.0470947287977
0.8014,0.00939935271163,-0.0470947287977
0.8016,0.00939935271163,-0.0470947287977
0.8018,0.00939935271163,-0.0470947287977
0.802,-0.0281980581349,-0.0470947287977
0.8022,-0.0657954689814,-0.0470947287977
0.8024,-0.178587701521,-0.0470947287977
0.8026,-0.178587701521,-0.0470947287977
0.8028,-0.178587701521,-0.0470947287977
0.803,-0.178587701521,-0.0470947287977
0.8032,-0.103392879828,-0.0470947287977
0.8034,-0.103392879828,-0.0470947287977
0.8036,-0.103392879828,-0.0470947287977
0.8038,-0.140990290674,-0.0470947287977
0.804,-0.178587701521,-0.0470947287977
0.8042,-0.253782523214,-0.0470947287977
0.8044,-0.29137993406,-0.0470947287977
0.8046,-0.29137993406,-0.0470947287977
0.8048,-0.29137993406,-0.0470947287977
0.805,-0.216185112367,-0.0470947287977
0.8052,-0.178587701521,-0.0470947287977
0.8054,-0.140990290674,-0.0470947287977
0.8056,-0.178587701521,-0.0470947287977
0.8058,-0.216185112367,-0.0470947287977
0.806,-0.253782523214,-0.0470947287977
0.8062,-0.328977344907,-0.0470947287977
0.8064,-0.328977344907,-0.0470947287977
0.8066,-0.29137993406,-0.0470947287977
0.8068,-0.253782523214,-0.0470947287977
0.807,-0.253782523214,-0.0470947287977
0.8072,-0.216185112367,-0.0470947287977
0.8074,-0.216185112367,-0.0470947287977
0.8076,-0.216185112367,-0.0470947287977
0.8078,-0.29137993406,-0.0470947287977
0.808,-0.328977344907,-0.0470947287977
0.8082,-0.328977344907,-0.0470947287977
0.8084,-0.328977344907,-0.0470947287977
0.8086,-0.29137993406,-0.0470947287977
0.8088,-0.216185112367,-0.0470947287977
0.809,-0.178587701521,-0.0470947287977
0.8092,-0.178587701521,-0.0470947287977
0.8094,-0.178587701521,-0.0470947287977
0.8096,-0.216185112367,-0.0470947287977
0.8098,-0.253782523214,-0.0470947287977
0.81,-0.29137993406,-0.0470947287977
0.8102,-0.253782523214,-0.0470947287977
0.8104,-0.253782523214,-0.0470947287977
0.8106,-0.216185112367,-0.0470947287977
0.8108,-0.178587701521,-0.0470947287977
0.811,-0.140990290674,-0.0470947287977
0.8112,-0.140990290674,-0.0470947287977
0.8114,-0.178587701521,-0.0470947287977
0.8116,-0.178587701521,-0.0470947287977
0.8118,-0.253782523214,-0.0470947287977
0.812,-0.216185112367,-0.0470947287977
0.8122,-0.216185112367,-0.0470947287977
0.8124,-0.140990290674,-0.0470947287977
0.8126,-0.103392879828,-0.0470947287977
0.8128,-0.0657954689814,-0.0470947287977
0.813,-0.0657954689814,-0.0470947287977
0.8132,-0.0657954689814,-0.0470947287977
0.8134,-0.0657954689814,-0.0470947287977
0.8136,-0.103392879828,-0.0470947287977
0.8138,-0.103392879828,-0.0470947287977
0.814,-0.0657954689814,-0.0470947287977
0.8142,-0.0657954689814,-0.0470947287977
0.8144,0.00939935271163,-0.0470947287977
0.8146,0.00939935271163,-0.0470947287977
0.8148,0.0469967635581,-0.0470947287977
0.815,0.0845941744046,-0.0470947287977
0.8152,0.00939935271163,-0.0470947287977
0.8154,-0.0281980581349,-0.0470947287977
0.8156,-0.0281980581349,-0.0470947287977
0.8158,-0.0281980581349,-0.0470947287977
0.816,0.0469967635581,-0.0470947287977
0.8162,0.0845941744046,-0.0470947287977
0.8164,0.122191585251,-0.0470947287977
0.8166,0.122191585251,-0.0470947287977
0.8168,0.122191585251,-0.0470947287977
0.817,0.122191585251,-0.0470947287977
0.8172,0.0845941744046,-0.0470947287977
0.8174,0.0845941744046,-0.0470947287977
0.8176,0.0845941744046,-0.0470947287977
0.8178,0.0845941744046,-0.0470947287977
0.818,0.195036568766,-0.0470947287977
0.8182,0.232633979613,-0.0470947287977
0.8184,0.232633979613,-0.0470947287977
0.8186,0.232633979613,-0.0470947287977
0.8188,0.195036568766,-0.0470947287977
0.819,0.15743915792,-0.0470947287977
0.8192,0.122191585251,-0.0470947287977
0.8194,0.122191585251,-0.0470947287977
0.8196,0.15743915792,-0.0470947287977
0.8198,0.195036568766,-0.0470947287977
0.82,0.232633979613,-0.0470947287977
0.8202,0.270231390459,-0.0470947287977
0.8204,0.270231390459,-0.0470947287977
0.8206,0.270231390459,-0.0470947287977
0.8208,0.232633979613,-0.0470947287977
0.821,0.195036568766,-0.0470947287977
0.8212,0.15743915792,-0.0470947287977
0.8214,0.195036568766,-0.0470947287977
0.8216,0.195036568766,-0.0470947287977
0.8218,0.232633979613,-0.0470947287977
0.822,0.270231390459,-0.0470947287977
0.8222,0.270231390459,-0.0470947287977
0.8224,0.270231390459,-0.0470947287977
0.8226,0.232633979613,-0.0470947287977
0.8228,0.195036568766,-0.0470947287977
0.823,0.15743915792,-0.0470947287977
0.8232,0.122191585251,-0.0470947287977
0.8234,0.15743915792,-0.0470947287977
0.8236,0.195036568766,-0.0470947287977
0.8238,0.232633979613,-0.0470947287977
0.824,0.270231390459,-0.0470947287977
0.8242,0.270231390459,-0.0470947287977
0.8244,0.232633979613,-0.0470947287977
0.8246,0.15743915792,-0.0470947287977
0.8248,0.122191585251,-0.0470947287977
0.825,0.122191585251,-0.0470947287977
0.8252,0.0845941744046,-0.0470947287977
0.8254,0.122191585251,-0.0470947287977
0.8256,0.195036568766,-0.0470947287977
0.8258,0.195036568766,-0.0470947287977
0.826,0.195036568766,-0.0470947287977
0.8262,0.15743915792,-0.0470947287977
0.8264,0.122191585251,-0.0470947287977
0.8266,0.0845941744046,-0.0470947287977
0.8268,0.0469967635581,-0.0470947287977
0.827,0.00939935271163,-0.0470947287977
0.8272,0.00939935271163,-0.0470947287977
0.8274,0.0469967635581,-0.0470947287977
0.8276,0.0845941744046,-0.0470947287977
0.8278,0.122191585251,-0.0470947287977
0.828,0.0845941744046,-0.0470947287977
0.8282,0.0469967635581,-0.0470947287977
0.8284,-0.0281980581349,-0.0470947287977
0.8286,-0.0281980581349,-0.0470947287977
0.8288,-0.0657954689814,-0.0470947287977
0.829,-0.0281980581349,-0.0470947287977
0.8292,-0.0281980581349,-0.0470947287977
0.8294,0.00939935271163,-0.0470947287977
0.8296,0.00939935271163,-0.0470947287977
0.8298,0.00939935271163,-0.0470947287977
0.83,0.00939935271163,-0.0470947287977
0.8302,-0.0657954689814,-0.0470947287977
0.8304,-0.103392879828,-0.0470947287977
0.8306,-0.140990290674,-0.0470947287977
0.8308,-0.140990290674,-0.0470947287977
0.831,-0.103392879828,-0.0470947287977
0.8312,-0.0657954689814,-0.0470947287977
0.8314,-0.0281980581349,-0.0470947287977
0.8316,-0.0657954689814,-0.0470947287977
0.8318,-0.103392879828,-0.0470947287977
0.832,-0.140990290674,-0.0470947287977
0.8322,-0.178587701521,-0.0470947287977
0.8324,-0.253782523214,-0.0470947287977
0.8326,-0.216185112367,-0.0470947287977
0.8328,-0.216185112367,-0.0470947287977
0.833,-0.178587701521,-0.0470947287977
0.8332,-0.140990290674,-0.0470947287977
0.8334,-0.140990290674,-0.0470947287977
0.8336,-0.140990290674,-0.0470947287977
0.8338,-0.178587701521,-0.0470947287977
0.834,-0.216185112367,-0.0470947287977
0.8342,-0.253782523214,-0.0470947287977
0.8344,-0.253782523214,-0.0470947287977
0.8346,-0.216185112367,-0.0470947287977
0.8348,-0.216185112367,-0.0470947287977
0.835,-0.178587701521,-0.0470947287977
0.8352,-0.178587701521,-0.0470947287977
0.8354,-0.178587701521,-0.0470947287977
0.8356,-0.178587701521,-0.0470947287977
0.8358,-0.216185112367,-0.0470947287977
0.836,-0.29137993406,-0.0470947287977
0.8362,-0.29137993406,-0.0470947287977
0.8364,-0.29137993406,-0.0470947287977
0.8366,-0.253782523214,-0.0470947287977
0.8368,-0.178587701521,-0.0470947287977
0.837,-0.178587701521,-0.0470947287977
0.8372,-0.178587701521,-0.0470947287977
0.8374,-0.178587701521,-0.0470947287977
0.8376,-0.216185112367,-0.0470947287977
0.8378,-0.216185112367,-0.0470947287977
0.838,-0.216185112367,-0.0470947287977
0.8382,-0.216185112367,-0.0470947287977
0.8384,-0.178587701521,-0.0470947287977
0.8386,-0.178587701521,-0.0470947287977
0.8388,-0.103392879828,-0.0470947287977
0.839,-0.103392879828,-0.0470947287977
0.8392,-0.103392879828,-0.0470947287977
0.8394,-0.103392879828,-0.0470947287977
0.8396,-0.140990290674,-0.0470947287977
0.8398,-0.178587701521,-0.0470947287977
0.84,-0.178587701521,-0.0470947287977
0.8402,-0.140990290674,-0.0470947287977
0.8404,-0.0657954689814,-0.0470947287977
0.8406,-0.0281980581349,-0.0470947287977
0.8408,-0.0281980581349,-0.0470947287977
0.841,-0.0281980581349,-0.0470947287977
0.8412,-0.0657954689814,-0.0470947287977
0.8414,-0.0657954689814,-0.0470947287977
0.8416,-0.103392879828,-0.0470947287977
0.8418,-0.0657954689814,-0.0470947287977
0.842,-0.0281980581349,-0.0470947287977
0.8422,-0.0281980581349,-0.0470947287977
0.8424,0.00939935271163,-0.0470947287977
0.8426,0.0469967635581,-0.0470947287977
0.8428,0.0845941744046,-0.0470947287977
0.843,0.0469967635581,-0.0470947287977
0.8432,0.0469967635581,-0.0470947287977
0.8434,0.00939935271163,-0.0470947287977
0.8436,0.00939935271163,-0.0470947287977
0.8438,0.0469967635581,-0.0470947287977
0.844,0.122191585251,-0.0470947287977
0.8442,0.122191585251,-0.0470947287977
0.8444,0.15743915792,-0.0470947287977
0.8446,0.15743915792,-0.0470947287977
0.8448,0.195036568766,-0.0470947287977
0.845,0.122191585251,-0.0470947287977
0.8452,0.122191585251,-0.0470947287977
0.8454,0.122191585251,-0.0470947287977
0.8456,0.122191585251,-0.0470947287977
0.8458,0.122191585251,-0.0470947287977
0.846,0.195036568766,-0.0470947287977
0.8462,0.232633979613,-0.0470947287977
0.8464,0.232633979613,-0.0470947287977
0.8466,0.232633979613,-0.0470947287977
0.8468,0.232633979613,-0.0470947287977
0.847,0.195036568766,-0.0470947287977
0.8472,0.15743915792,-0.0470947287977
0.8474,0.15743915792,-0.0470947287977
0.8476,0.195036568766,-0.0470947287977
0.8478,0.232633979613,-0.0470947287977
0.848,0.270231390459,-0.0470947287977
0.8482,0.270231390459,-0.0470947287977
0.8484,0.270231390459,-0.0470947287977
0.8486,0.270231390459,-0.0470947287977
0.8488,0.232633979613,-0.0470947287977
0.849,0.232633979613,-0.0470947287977
0.8492,0.195036568766,-0.0470947287977
0.8494,0.195036568766,-0.0470947287977
0.8496,0.232633979613,-0.0470947287977
0.8498,0.270231390459,-0.0470947287977
0.85,0.307828801306,-0.0470947287977
0.8502,0.307828801306,-0.0470947287977
0.8504,0.270231390459,-0.0470947287977
0.8506,0.232633979613,-0.0470947287977
0.8508,0.232633979613,-0.0470947287977
0.851,0.195036568766,-0.0470947287977
0.8512,0.195036568766,-0.0470947287977
0.8514,0.195036568766,-0.0470947287977
0.8516,0.232633979613,-0.0470947287977
0.8518,0.232633979613,-0.0470947287977
0.852,0.232633979613,-0.0470947287977
0.8522,0.232633979613,-0.0470947287977
0.8524,0.195036568766,-0.0470947287977
0.8526,0.122191585251,-0.0470947287977
0.8528,0.122191585251,-0.0470947287977
0.853,0.0845941744046,-0.0470947287977
0.8532,0.0845941744046,-0.0470947287977
0.8534,0.122191585251,-0.0470947287977
0.8536,0.15743915792,-0.0470947287977
0.8538,0.195036568766,-0.0470947287977
0.854,0.15743915792,-0.0470947287977
0.8542,0.122191585251,-0.0470947287977
0.8544,0.0845941744046,-0.0470947287977
0.8546,0.0845941744046,-0.0470947287977
0.8548,0.0469967635581,-0.0470947287977
0.855,0.0845941744046,-0.0470947287977
0.8552,0.0845941744046,-0.0470947287977
0.8554,0.0845941744046,-0.0470947287977
0.8556,0.122191585251,-0.0470947287977
0.8558,0.122191585251,-0.0470947287977
0.856,0.0845941744046,-0.0470947287977
0.8562,0.00939935271163,-0.0470947287977
0.8564,-0.0281980581349,-0.0470947287977
0.8566,-0.0281980581349,-0.0470947287977
0.8568,-0.0281980581349,-0.0470947287977
0.857,-0.0657954689814,-0.0470947287977
0.8572,-0.0281980581349,-0.0470947287977
0.8574,-0.0281980581349,-0.0470947287977
0.8576,-0.0281980581349,-0.0470947287977
0.8578,-0.0281980581349,-0.0470947287977
0.858,-0.0657954689814,-0.0470947287977
0.8582,-0.103392879828,-0.0470947287977
0.8584,-0.140990290674,-0.0470947287977
0.8586,-0.178587701521,-0.0470947287977
0.8588,-0.178587701521,-0.0470947287977
0.859,-0.140990290674,-0.0470947287977
0.8592,-0.103392879828,-0.0470947287977
0.8594,-0.103392879828,-0.0470947287977
0.8596,-0.103392879828,-0.0470947287977
0.8598,-0.140990290674,-0.0470947287977
0.86,-0.178587701521,-0.0470947287977
0.8602,-0.178587701521,-0.0470947287977
0.8604,-0.216185112367,-0.0470947287977
0.8606,-0.253782523214,-0.0470947287977
0.8608,-0.178587701521,-0.0470947287977
0.861,-0.178587701521,-0.0470947287977
0.8612,-0.178587701521,-0.0470947287977
0.8614,-0.178587701521,-0.0470947287977
0.8616,-0.178587701521,-0.0470947287977
0.8618,-0.178587701521,-0.0470947287977
0.862,-0.216185112367,-0.0470947287977
0.8622,-0.29137993406,-0.0470947287977
0.8624,-0.253782523214,-0.0470947287977
0.8626,-0.253782523214,-0.0470947287977
0.8628,-0.178587701521,-0.0470947287977
0.863,-0.178587701521,-0.0470947287977
0.8632,-0.178587701521,-0.0470947287977
0.8634,-0.178587701521,-0.0470947287977
0.8636,-0.253782523214,-0.0470947287977
0.8638,-0.29137993406,-0.0470947287977
0.864,-0.29137993406,-0.0470947287977
0.8642,-0.29137993406,-0.0470947287977
0.8644,-0.328977344907,-0.0470947287977
0.8646,-0.29137993406,-0.0470947287977
0.8648,-0.253782523214,-0.0470947287977
0.865,-0.178587701521,-0.0470947287977
0.8652,-0.178587701521,-0.0470947287977
0.8654,-0.216185112367,-0.0470947287977
0.8656,-0.216185112367,-0.0470947287977
0.8658,-0.253782523214,-0.0470947287977
0.866,-0.29137993406,-0.0470947287977
0.8662,-0.253782523214,-0.0470947287977
0.8664,-0.216185112367,-0.0470947287977
0.8666,-0.178587701521,-0.0470947287977
0.8668,-0.178587701521,-0.0470947287977
0.867,-0.103392879828,-0.0470947287977
0.8672,-0.103392879828,-0.0470947287977
0.8674,-0.103392879828,-0.0470947287977
0.8676,-0.178587701521,-0.0470947287977
0.8678,-0.178587701521,-0.0470947287977
0.868,-0.178587701521,-0.0470947287977
0.8682,-0.178587701521,-0.0470947287977
0.8684,-0.103392879828,-0.0470947287977
0.8686,-0.0657954689814,-0.0470947287977
0.8688,-0.0281980581349,-0.0470947287977
0.869,-0.0281980581349,-0.0470947287977
0.8692,-0.0657954689814,-0.0470947287977
0.8694,-0.103392879828,-0.0470947287977
0.8696,-0.140990290674,-0.0470947287977
0.8698,-0.103392879828,-0.0470947287977
0.87,-0.0657954689814,-0.0470947287977
0.8702,-0.0281980581349,-0.0470947287977
0.8704,-0.0281980581349,-0.0470947287977
0.8706,0.00939935271163,-0.0470947287977
0.8708,0.00939935271163,-0.0470947287977
0.871,0.00939935271163,-0.0470947287977
0.8712,0.00939935271163,-0.0470947287977
0.8714,-0.0281980581349,-0.0470947287977
0.8716,-0.0281980581349,-0.0470947287977
0.8718,-0.0281980581349,-0.0470947287977
0.872,0.0469967635581,-0.0470947287977
0.8722,0.0845941744046,-0.0470947287977
0.8724,0.122191585251,-0.0470947287977
0.8726,0.122191585251,-0.0470947287977
0.8728,0.122191585251,-0.0470947287977
0.873,0.122191585251,-0.0470947287977
0.8732,0.122191585251,-0.0470947287977
0.8734,0.0845941744046,-0.0470947287977
0.8736,0.122191585251,-0.0470947287977
0.8738,0.122191585251,-0.0470947287977
0.874,0.195036568766,-0.0470947287977
0.8742,0.232633979613,-0.0470947287977
0.8744,0.232633979613,-0.0470947287977
0.8746,0.232633979613,-0.0470947287977
0.8748,0.232633979613,-0.0470947287977
0.875,0.232633979613,-0.0470947287977
0.8752,0.195036568766,-0.0470947287977
0.8754,0.195036568766,-0.0470947287977
0.8756,0.232633979613,-0.0470947287977
0.8758,0.232633979613,-0.0470947287977
0.876,0.270231390459,-0.0470947287977
0.8762,0.270231390459,-0.0470947287977
0.8764,0.232633979613,-0.0470947287977
0.8766,0.270231390459,-0.0470947287977
0.8768,0.270231390459,-0.0470947287977
0.877,0.270231390459,-0.0470947287977
0.8772,0.232633979613,-0.0470947287977
0.8774,0.232633979613,-0.0470947287977
0.8776,0.270231390459,-0.0470947287977
0.8778,0.307828801306,-0.0470947287977
0.878,0.307828801306,-0.0470947287977
0.8782,0.307828801306,-0.0470947287977
0.8784,0.345426212152,-0.0470947287977
0.8786,0.270231390459,-0.0470947287977
0.8788,0.270231390459,-0.0470947287977
0.879,0.270231390459,-0.0470947287977
0.8792,0.270231390459,-0.0470947287977
0.8794,0.270231390459,-0.0470947287977
0.8796,0.307828801306,-0.0470947287977
0.8798,0.270231390459,-0.0470947287977
0.88,0.307828801306,-0.0470947287977
0.8802,0.270231390459,-0.0470947287977
0.8804,0.270231390459,-0.0470947287977
0.8806,0.232633979613,-0.0470947287977
0.8808,0.195036568766,-0.0470947287977
0.881,0.15743915792,-0.0470947287977
0.8812,0.195036568766,-0.0470947287977
0.8814,0.195036568766,-0.0470947287977
0.8816,0.232633979613,-0.0470947287977
0.8818,0.232633979613,-0.0470947287977
0.882,0.232633979613,-0.0470947287977
0.8822,0.195036568766,-0.0470947287977
0.8824,0.195036568766,-0.0470947287977
0.8826,0.122191585251,-0.0470947287977
0.8828,0.0845941744046,-0.0470947287977
0.883,0.122191585251,-0.0470947287977
0.8832,0.122191585251,-0.0470947287977
0.8834,0.122191585251,-0.0470947287977
0.8836,0.122191585251,-0.0470947287977
0.8838,0.15743915792,-0.0470947287977
0.884,0.15743915792,-0.0470947287977
0.8842,0.0845941744046,-0.0470947287977
0.8844,0.0469967635581,-0.0470947287977
0.8846,0.00939935271163,-0.0470947287977
0.8848,-0.0281980581349,-0.0470947287977
0.885,0.00939935271163,-0.0470947287977
0.8852,0.00939935271163,-0.0470947287977
0.8854,0.0469967635581,-0.0470947287977
0.8856,0.00939935271163,-0.0470947287977
0.8858,0.00939935271163,-0.0470947287977
0.886,-0.0281980581349,-0.0470947287977
0.8862,-0.0281980581349,-0.0470947287977
0.8864,-0.103392879828,-0.0470947287977
0.8866,-0.103392879828,-0.0470947287977
0.8868,-0.140990290674,-0.0470947287977
0.887,-0.103392879828,-0.0470947287977
0.8872,-0.0657954689814,-0.0470947287977
0.8874,-0.0657954689814,-0.0470947287977
0.8876,-0.103392879828,-0.0470947287977
0.8878,-0.103392879828,-0.0470947287977
0.888,-0.178587701521,-0.0470947287977
0.8882,-0.216185112367,-0.0470947287977
0.8884,-0.216185112367,-0.0470947287977
0.8886,-0.216185112367,-0.0470947287977
0.8888,-0.216185112367,-0.0470947287977
0.889,-0.178587701521,-0.0470947287977
0.8892,-0.178587701521,-0.0470947287977
0.8894,-0.178587701521,-0.0470947287977
0.8896,-0.178587701521,-0.0470947287977
0.8898,-0.216185112367,-0.0470947287977
0.89,-0.253782523214,-0.0470947287977
0.8902,-0.29137993406,-0.0470947287977
0.8904,-0.328977344907,-0.0470947287977
0.8906,-0.29137993406,-0.0470947287977
0.8908,-0.253782523214,-0.0470947287977
0.891,-0.216185112367,-0.0470947287977
0.8912,-0.216185112367,-0.0470947287977
0.8914,-0.253782523214,-0.0470947287977
0.8916,-0.29137993406,-0.0470947287977
0.8918,-0.328977344907,-0.0470947287977
0.892,-0.328977344907,-0.0470947287977
0.8922,-0.328977344907,-0.0470947287977
0.8924,-0.328977344907,-0.0470947287977
0.8926,-0.328977344907,-0.0470947287977
0.8928,-0.29137993406,-0.0470947287977
0.893,-0.253782523214,-0.0470947287977
0.8932,-0.216185112367,-0.0470947287977
0.8934,-0.29137993406,-0.0470947287977
0.8936,-0.328977344907,-0.0470947287977
0.8938,-0.328977344907,-0.0470947287977
0.894,-0.328977344907,-0.0470947287977
0.8942,-0.328977344907,-0.0470947287977
0.8944,-0.29137993406,-0.0470947287977
0.8946,-0.216185112367,-0.0470947287977
0.8948,-0.216185112367,-0.0470947287977
0.895,-0.216185112367,-0.0470947287977
0.8952,-0.216185112367,-0.0470947287977
0.8954,-0.216185112367,-0.0470947287977
0.8956,-0.29137993406,-0.0470947287977
0.8958,-0.29137993406,-0.0470947287977
0.896,-0.29137993406,-0.0470947287977
0.8962,-0.253782523214,-0.0470947287977
0.8964,-0.216185112367,-0.0470947287977
0.8966,-0.178587701521,-0.0470947287977
0.8968,-0.140990290674,-0.0470947287977
0.897,-0.103392879828,-0.0470947287977
0.8972,-0.178587701521,-0.0470947287977
0.8974,-0.178587701521,-0.0470947287977
0.8976,-0.216185112367,-0.0470947287977
0.8978,-0.178587701521,-0.0470947287977
0.898,-0.178587701521,-0.0470947287977
0.8982,-0.140990290674,-0.0470947287977
0.8984,-0.103392879828,-0.0470947287977
0.8986,-0.0657954689814,-0.0470947287977
0.8988,-0.0657954689814,-0.0470947287977
0.899,-0.0281980581349,-0.0470947287977
0.8992,-0.0657954689814,-0.0470947287977
0.8994,-0.0657954689814,-0.0470947287977
0.8996,-0.103392879828,-0.0470947287977
0.8998,-0.0657954689814,-0.0470947287977
0.9,-0.0281980581349,-0.0470947287977
0.9002,-0.0281980581349,-0.0470947287977
0.9004,0.0845941744046,-0.0470947287977
0.9006,0.0845941744046,-0.0470947287977
0.9008,0.0845941744046,-0.0470947287977
0.901,0.0845941744046,-0.0470947287977
0.9012,0.0469967635581,-0.0470947287977
0.9014,0.0845941744046,-0.0470947287977
0.9016,0.0845941744046,-0.0470947287977
0.9018,0.0845941744046,-0.0470947287977
0.902,0.122191585251,-0.0470947287977
0.9022,0.15743915792,-0.0470947287977
0.9024,0.195036568766,-0.0470947287977
0.9026,0.232633979613,-0.0470947287977
0.9028,0.195036568766,-0.0470947287977
0.903,0.195036568766,-0.0470947287977
0.9032,0.15743915792,-0.0470947287977
0.9034,0.15743915792,-0.0470947287977
0.9036,0.195036568766,-0.0470947287977
0.9038,0.195036568766,-0.0470947287977
0.904,0.232633979613,-0.0470947287977
0.9042,0.232633979613,-0.0470947287977
0.9044,0.270231390459,-0.0470947287977
0.9046,0.232633979613,-0.0470947287977
0.9048,0.270231390459,-0.0470947287977
0.905,0.270231390459,-0.0470947287977
0.9052,0.232633979613,-0.0470947287977
0.9054,0.270231390459,-0.0470947287977
0.9056,0.270231390459,-0.0470947287977
0.9058,0.307828801306,-0.0470947287977
0.906,0.307828801306,-0.0470947287977
0.9062,0.345426212152,-0.0470947287977
0.9064,0.307828801306,-0.0470947287977
0.9066,0.307828801306,-0.0470947287977
0.9068,0.270231390459,-0.0470947287977
0.907,0.307828801306,-0.0470947287977
0.9072,0.307828801306,-0.0470947287977
0.9074,0.307828801306,-0.0470947287977
0.9076,0.383023622999,-0.0470947287977
0.9078,0.345426212152,-0.0470947287977
0.908,0.383023622999,-0.0470947287977
0.9082,0.345426212152,-0.0470947287977
0.9084,0.307828801306,-0.0470947287977
0.9086,0.307828801306,-0.0470947287977
0.9088,0.270231390459,-0.0470947287977
0.909,0.270231390459,-0.0470947287977
0.9092,0.307828801306,-0.0470947287977
0.9094,0.307828801306,-0.0470947287977
0.9096,0.307828801306,-0.0470947287977
0.9098,0.345426212152,-0.0470947287977
0.91,0.307828801306,-0.0470947287977
0.9102,0.270231390459,-0.0470947287977
0.9104,0.270231390459,-0.0470947287977
0.9106,0.232633979613,-0.0470947287977
0.9108,0.232633979613,-0.0470947287977
0.911,0.232633979613,-0.0470947287977
0.9112,0.270231390459,-0.0470947287977
0.9114,0.270231390459,-0.0470947287977
0.9116,0.270231390459,-0.0470947287977
0.9118,0.270231390459,-0.0470947287977
0.912,0.232633979613,-0.0470947287977
0.9122,0.195036568766,-0.0470947287977
0.9124,0.122191585251,-0.0470947287977
0.9126,0.122191585251,-0.0470947287977
0.9128,0.122191585251,-0.0470947287977
0.913,0.122191585251,-0.0470947287977
0.9132,0.15743915792,-0.0470947287977
0.9134,0.15743915792,-0.0470947287977
0.9136,0.122191585251,-0.0470947287977
0.9138,0.122191585251,-0.0470947287977
0.914,0.0845941744046,-0.0470947287977
0.9142,0.0845941744046,-0.0470947287977
0.9144,0.00939935271163,-0.0470947287977
0.9146,0.00939935271163,-0.0470947287977
0.9148,-0.0281980581349,-0.0470947287977
0.915,0.00939935271163,-0.0470947287977
0.9152,0.00939935271163,-0.0470947287977
0.9154,0.0469967635581,-0.0470947287977
0.9156,0.00939935271163,-0.0470947287977
0.9158,-0.0281980581349,-0.0470947287977
0.916,-0.0657954689814,-0.0470947287977
0.9162,-0.103392879828,-0.0470947287977
0.9164,-0.103392879828,-0.0470947287977
0.9166,-0.140990290674,-0.0470947287977
0.9168,-0.103392879828,-0.0470947287977
0.917,-0.103392879828,-0.0470947287977
0.9172,-0.103392879828,-0.0470947287977
0.9174,-0.103392879828,-0.0470947287977
0.9176,-0.103392879828,-0.0470947287977
0.9178,-0.140990290674,-0.0470947287977
0.918,-0.216185112367,-0.0470947287977
0.9182,-0.216185112367,-0.0470947287977
0.9184,-0.253782523214,-0.0470947287977
0.9186,-0.253782523214,-0.0470947287977
0.9188,-0.216185112367,-0.0470947287977
0.919,-0.178587701521,-0.0470947287977
0.9192,-0.216185112367,-0.0470947287977
0.9194,-0.216185112367,-0.0470947287977
0.9196,-0.253782523214,-0.0470947287977
0.9198,-0.29137993406,-0.0470947287977
0.92,-0.328977344907,-0.0470947287977
0.9202,-0.328977344907,-0.0470947287977
0.9204,-0.328977344907,-0.0470947287977
0.9206,-0.328977344907,-0.0470947287977
0.9208,-0.29137993406,-0.0470947287977
0.921,-0.29137993406,-0.0470947287977
0.9212,-0.29137993406,-0.0470947287977
0.9214,-0.29137993406,-0.0470947287977
0.9216,-0.328977344907,-0.0470947287977
0.9218,-0.328977344907,-0.0470947287977
0.922,-0.364224917575,-0.0470947287977
0.9222,-0.364224917575,-0.0470947287977
0.9224,-0.328977344907,-0.0470947287977
0.9226,-0.328977344907,-0.0470947287977
0.9228,-0.328977344907,-0.0470947287977
0.923,-0.328977344907,-0.0470947287977
0.9232,-0.328977344907,-0.0470947287977
0.9234,-0.328977344907,-0.0470947287977
0.9236,-0.364224917575,-0.0470947287977
0.9238,-0.328977344907,-0.0470947287977
0.924,-0.328977344907,-0.0470947287977
0.9242,-0.328977344907,-0.0470947287977
0.9244,-0.328977344907,-0.0470947287977
0.9246,-0.29137993406,-0.0470947287977
0.9248,-0.29137993406,-0.0470947287977
0.925,-0.29137993406,-0.0470947287977
0.9252,-0.29137993406,-0.0470947287977
0.9254,-0.29137993406,-0.0470947287977
0.9256,-0.29137993406,-0.0470947287977
0.9258,-0.29137993406,-0.0470947287977
0.926,-0.253782523214,-0.0470947287977
0.9262,-0.216185112367,-0.0470947287977
0.9264,-0.216185112367,-0.0470947287977
0.9266,-0.178587701521,-0.0470947287977
0.9268,-0.178587701521,-0.0470947287977
0.927,-0.178587701521,-0.0470947287977
0.9272,-0.178587701521,-0.0470947287977
0.9274,-0.216185112367,-0.0470947287977
0.9276,-0.178587701521,-0.0470947287977
0.9278,-0.178587701521,-0.0470947287977
0.928,-0.178587701521,-0.0470947287977
0.9282,-0.103392879828,-0.0470947287977
0.9284,-0.0657954689814,-0.0470947287977
0.9286,-0.0657954689814,-0.0470947287977
0.9288,-0.0657954689814,-0.0470947287977
0.929,-0.0657954689814,-0.0470947287977
0.9292,-0.0657954689814,-0.0470947287977
0.9294,-0.0657954689814,-0.0470947287977
0.9296,-0.0657954689814,-0.0470947287977
0.9298,-0.0281980581349,-0.0470947287977
0.93,0.00939935271163,-0.0470947287977
0.9302,0.00939935271163,-0.0470947287977
0.9304,0.0845941744046,-0.0470947287977
0.9306,0.0845941744046,-0.0470947287977
0.9308,0.0469967635581,-0.0470947287977
0.931,0.0469967635581,-0.0470947287977
0.9312,0.0469967635581,-0.0470947287977
0.9314,0.0469967635581,-0.0470947287977
0.9316,0.0845941744046,-0.0470947287977
0.9318,0.122191585251,-0.0470947287977
0.932,0.15743915792,-0.0470947287977
0.9322,0.195036568766,-0.0470947287977
0.9324,0.195036568766,-0.0470947287977
0.9326,0.15743915792,-0.0470947287977
0.9328,0.15743915792,-0.0470947287977
0.933,0.122191585251,-0.0470947287977
0.9332,0.15743915792,-0.0470947287977
0.9334,0.195036568766,-0.0470947287977
0.9336,0.232633979613,-0.0470947287977
0.9338,0.270231390459,-0.0470947287977
0.934,0.307828801306,-0.0470947287977
0.9342,0.307828801306,-0.0470947287977
0.9344,0.307828801306,-0.0470947287977
0.9346,0.270231390459,-0.0470947287977
0.9348,0.270231390459,-0.0470947287977
0.935,0.232633979613,-0.0470947287977
0.9352,0.270231390459,-0.0470947287977
0.9354,0.270231390459,-0.0470947287977
0.9356,0.307828801306,-0.0470947287977
0.9358,0.345426212152,-0.0470947287977
0.936,0.383023622999,-0.0470947287977
0.9362,0.383023622999,-0.0470947287977
0.9364,0.383023622999,-0.0470947287977
0.9366,0.307828801306,-0.0470947287977
0.9368,0.307828801306,-0.0470947287977
0.937,0.270231390459,-0.0470947287977
0.9372,0.307828801306,-0.0470947287977
0.9374,0.307828801306,-0.0470947287977
0.9376,0.383023622999,-0.0470947287977
0.9378,0.383023622999,-0.0470947287977
0.938,0.420621033845,-0.0470947287977
0.9382,0.383023622999,-0.0470947287977
0.9384,0.307828801306,-0.0470947287977
0.9386,0.307828801306,-0.0470947287977
0.9388,0.270231390459,-0.0470947287977
0.939,0.270231390459,-0.0470947287977
0.9392,0.307828801306,-0.0470947287977
0.9394,0.345426212152,-0.0470947287977
0.9396,0.383023622999,-0.0470947287977
0.9398,0.383023622999,-0.0470947287977
0.94,0.345426212152,-0.0470947287977
0.9402,0.307828801306,-0.0470947287977
0.9404,0.270231390459,-0.0470947287977
0.9406,0.232633979613,-0.0470947287977
0.9408,0.232633979613,-0.0470947287977
0.941,0.232633979613,-0.0470947287977
0.9412,0.270231390459,-0.0470947287977
0.9414,0.270231390459,-0.0470947287977
0.9416,0.307828801306,-0.0470947287977
0.9418,0.270231390459,-0.0470947287977
0.942,0.232633979613,-0.0470947287977
0.9422,0.195036568766,-0.0470947287977
0.9424,0.195036568766,-0.0470947287977
0.9426,0.15743915792,-0.0470947287977
0.9428,0.122191585251,-0.0470947287977
0.943,0.195036568766,-0.0470947287977
0.9432,0.122191585251,-0.0470947287977
0.9434,0.15743915792,-0.0470947287977
0.9436,0.122191585251,-0.0470947287977
0.9438,0.122191585251,-0.0470947287977
0.944,0.0845941744046,-0.0470947287977
0.9442,0.0469967635581,-0.0470947287977
0.9444,0.0469967635581,-0.0470947287977
0.9446,0.00939935271163,-0.0470947287977
0.9448,0.00939935271163,-0.0470947287977
0.945,0.00939935271163,-0.0470947287977
0.9452,0.00939935271163,-0.0470947287977
0.9454,0.00939935271163,-0.0470947287977
0.9456,-0.0281980581349,-0.0470947287977
0.9458,-0.0281980581349,-0.0470947287977
0.946,-0.0281980581349,-0.0470947287977
0.9462,-0.0657954689814,-0.0470947287977
0.9464,-0.103392879828,-0.0470947287977
0.9466,-0.103392879828,-0.0470947287977
0.9468,-0.103392879828,-0.0470947287977
0.947,-0.0657954689814,-0.0470947287977
0.9472,-0.103392879828,-0.0470947287977
0.9474,-0.103392879828,-0.0470947287977
0.9476,-0.178587701521,-0.0470947287977
0.9478,-0.178587701521,-0.0470947287977
0.948,-0.216185112367,-0.0470947287977
0.9482,-0.216185112367,-0.0470947287977
0.9484,-0.178587701521,-0.0470947287977
0.9486,-0.216185112367,-0.0470947287977
0.9488,-0.216185112367,-0.0470947287977
0.949,-0.178587701521,-0.0470947287977
0.9492,-0.216185112367,-0.0470947287977
0.9494,-0.216185112367,-0.0470947287977
0.9496,-0.253782523214,-0.0470947287977
0.9498,-0.29137993406,-0.0470947287977
0.95,-0.328977344907,-0.0470947287977
0.9502,-0.328977344907,-0.0470947287977
0.9504,-0.29137993406,-0.0470947287977
0.9506,-0.29137993406,-0.0470947287977
0.9508,-0.253782523214,-0.0470947287977
0.951,-0.29137993406,-0.0470947287977
0.9512,-0.29137993406,-0.0470947287977
0.9514,-0.29137993406,-0.0470947287977
0.9516,-0.328977344907,-0.0470947287977
0.9518,-0.364224917575,-0.0470947287977
0.952,-0.328977344907,-0.0470947287977
0.9522,-0.364224917575,-0.0470947287977
0.9524,-0.328977344907,-0.0470947287977
0.9526,-0.29137993406,-0.0470947287977
0.9528,-0.328977344907,-0.0470947287977
0.953,-0.29137993406,-0.0470947287977
0.9532,-0.29137993406,-0.0470947287977
0.9534,-0.328977344907,-0.0470947287977
0.9536,-0.328977344907,-0.0470947287977
0.9538,-0.364224917575,-0.0470947287977
0.954,-0.328977344907,-0.0470947287977
0.9542,-0.328977344907,-0.0470947287977
0.9544,-0.29137993406,-0.0470947287977
0.9546,-0.29137993406,-0.0470947287977
0.9548,-0.253782523214,-0.0470947287977
0.955,-0.328977344907,-0.0470947287977
0.9552,-0.29137993406,-0.0470947287977
0.9554,-0.328977344907,-0.0470947287977
0.9556,-0.328977344907,-0.0470947287977
0.9558,-0.328977344907,-0.0470947287977
0.956,-0.29137993406,-0.0470947287977
0.9562,-0.253782523214,-0.0470947287977
0.9564,-0.216185112367,-0.0470947287977
0.9566,-0.178587701521,-0.0470947287977
0.9568,-0.178587701521,-0.0470947287977
0.957,-0.178587701521,-0.0470947287977
0.9572,-0.216185112367,-0.0470947287977
0.9574,-0.216185112367,-0.0470947287977
0.9576,-0.178587701521,-0.0470947287977
0.9578,-0.178587701521,-0.0470947287977
0.958,-0.140990290674,-0.0470947287977
0.9582,-0.103392879828,-0.0470947287977
0.9584,-0.0657954689814,-0.0470947287977
0.9586,-0.0657954689814,-0.0470947287977
0.9588,-0.0281980581349,-0.0470947287977
0.959,-0.0657954689814,-0.0470947287977
0.9592,-0.103392879828,-0.0470947287977
0.9594,-0.103392879828,-0.0470947287977
0.9596,-0.0657954689814,-0.0470947287977
0.9598,-0.0281980581349,-0.0470947287977
0.96,0.00939935271163,-0.0470947287977
0.9602,0.0469967635581,-0.0470947287977
0.9604,0.0469967635581,-0.0470947287977
0.9606,0.0469967635581,-0.0470947287977
0.9608,0.00939935271163,-0.0470947287977
0.961,0.0469967635581,-0.0470947287977
0.9612,0.0469967635581,-0.0470947287977
0.9614,0.0845941744046,-0.0470947287977
0.9616,0.0845941744046,-0.0470947287977
0.9618,0.15743915792,-0.0470947287977
0.962,0.195036568766,-0.0470947287977
0.9622,0.195036568766,-0.0470947287977
0.9624,0.232633979613,-0.0470947287977
0.9626,0.15743915792,-0.0470947287977
0.9628,0.15743915792,-0.0470947287977
0.963,0.122191585251,-0.0470947287977
0.9632,0.15743915792,-0.0470947287977
0.9634,0.15743915792,-0.0470947287977
0.9636,0.232633979613,-0.0470947287977
0.9638,0.270231390459,-0.0470947287977
0.964,0.270231390459,-0.0470947287977
0.9642,0.270231390459,-0.0470947287977
0.9644,0.270231390459,-0.0470947287977
0.9646,0.270231390459,-0.0470947287977
0.9648,0.270231390459,-0.0470947287977
0.965,0.232633979613,-0.0470947287977
0.9652,0.270231390459,-0.0470947287977
0.9654,0.270231390459,-0.0470947287977
0.9656,0.307828801306,-0.0470947287977
0.9658,0.383023622999,-0.0470947287977
0.966,0.383023622999,-0.0470947287977
0.9662,0.383023622999,-0.0470947287977
0.9664,0.345426212152,-0.0470947287977
0.9666,0.307828801306,-0.0470947287977
0.9668,0.307828801306,-0.0470947287977
0.967,0.307828801306,-0.0470947287977
0.9672,0.307828801306,-0.0470947287977
0.9674,0.307828801306,-0.0470947287977
0.9676,0.345426212152,-0.0470947287977
0.9678,0.383023622999,-0.0470947287977
0.968,0.383023622999,-0.0470947287977
0.9682,0.383023622999,-0.0470947287977
0.9684,0.307828801306,-0.0470947287977
0.9686,0.307828801306,-0.0470947287977
0.9688,0.270231390459,-0.0470947287977
0.969,0.270231390459,-0.0470947287977
0.9692,0.345426212152,-0.0470947287977
0.9694,0.383023622999,-0.0470947287977
0.9696,0.383023622999,-0.0470947287977
0.9698,0.345426212152,-0.0470947287977
0.97,0.345426212152,-0.0470947287977
0.9702,0.307828801306,-0.0470947287977
0.9704,0.270231390459,-0.0470947287977
0.9706,0.270231390459,-0.0470947287977
0.9708,0.270231390459,-0.0470947287977
0.971,0.270231390459,-0.0470947287977
0.9712,0.270231390459,-0.0470947287977
0.9714,0.270231390459,-0.0470947287977
0.9716,0.270231390459,-0.0470947287977
0.9718,0.232633979613,-0.0470947287977
0.972,0.232633979613,-0.0470947287977
0.9722,0.195036568766,-0.0470947287977
0.9724,0.15743915792,-0.0470947287977
0.9726,0.15743915792,-0.0470947287977
0.9728,0.195036568766,-0.0470947287977
0.973,0.195036568766,-0.0470947287977
0.9732,0.15743915792,-0.0470947287977
0.9734,0.15743915792,-0.0470947287977
0.9736,0.15743915792,-0.0470947287977
0.9738,0.122191585251,-0.0470947287977
0.974,0.0845941744046,-0.0470947287977
0.9742,0.0845941744046,-0.0470947287977
0.9744,0.0469967635581,-0.0470947287977
0.9746,0.0469967635581,-0.0470947287977
0.9748,0.0469967635581,-0.0470947287977
0.975,0.0845941744046,-0.0470947287977
0.9752,0.0469967635581,-0.0470947287977
0.9754,0.0469967635581,-0.0470947287977
0.9756,-0.0281980581349,-0.0470947287977
0.9758,-0.0281980581349,-0.0470947287977
0.976,-0.0281980581349,-0.0470947287977
0.9762,-0.0657954689814,-0.0470947287977
0.9764,-0.103392879828,-0.0470947287977
0.9766,-0.0281980581349,-0.0470947287977
0.9768,-0.0657954689814,-0.0470947287977
0.977,-0.0657954689814,-0.0470947287977
0.9772,-0.0657954689814,-0.0470947287977
0.9774,-0.103392879828,-0.0470947287977
0.9776,-0.140990290674,-0.0470947287977
0.9778,-0.140990290674,-0.0470947287977
0.978,-0.178587701521,-0.0470947287977
0.9782,-0.216185112367,-0.0470947287977
0.9784,-0.178587701521,-0.0470947287977
0.9786,-0.178587701521,-0.0470947287977
0.9788,-0.178587701521,-0.0470947287977
0.979,-0.178587701521,-0.0470947287977
0.9792,-0.178587701521,-0.0470947287977
0.9794,-0.216185112367,-0.0470947287977
0.9796,-0.29137993406,-0.0470947287977
0.9798,-0.29137993406,-0.0470947287977
0.98,-0.29137993406,-0.0470947287977
0.9802,-0.328977344907,-0.0470947287977
0.9804,-0.29137993406,-0.0470947287977
0.9806,-0.29137993406,-0.0470947287977
0.9808,-0.253782523214,-0.0470947287977
0.981,-0.253782523214,-0.0470947287977
0.9812,-0.29137993406,-0.0470947287977
0.9814,-0.328977344907,-0.0470947287977
0.9816,-0.328977344907,-0.0470947287977
0.9818,-0.328977344907,-0.0470947287977
0.982,-0.328977344907,-0.0470947287977
0.9822,-0.328977344907,-0.0470947287977
0.9824,-0.328977344907,-0.0470947287977
0.9826,-0.29137993406,-0.0470947287977
0.9828,-0.29137993406,-0.0470947287977
0.983,-0.29137993406,-0.0470947287977
0.9832,-0.328977344907,-0.0470947287977
0.9834,-0.328977344907,-0.0470947287977
0.9836,-0.328977344907,-0.0470947287977
0.9838,-0.328977344907,-0.0470947287977
0.984,-0.328977344907,-0.0470947287977
0.9842,-0.29137993406,-0.0470947287977
0.9844,-0.29137993406,-0.0470947287977
0.9846,-0.253782523214,-0.0470947287977
0.9848,-0.253782523214,-0.0470947287977
0.985,-0.29137993406,-0.0470947287977
0.9852,-0.29137993406,-0.0470947287977
0.9854,-0.29137993406,-0.0470947287977
0.9856,-0.29137993406,-0.0470947287977
0.9858,-0.253782523214,-0.0470947287977
0.986,-0.216185112367,-0.0470947287977
0.9862,-0.216185112367,-0.0470947287977
0.9864,-0.216185112367,-0.0470947287977
0.9866,-0.178587701521,-0.0470947287977
0.9868,-0.178587701521,-0.0470947287977
0.987,-0.216185112367,-0.0470947287977
0.9872,-0.216185112367,-0.0470947287977
0.9874,-0.216185112367,-0.0470947287977
0.9876,-0.178587701521,-0.0470947287977
0.9878,-0.178587701521,-0.0470947287977
0.988,-0.140990290674,-0.0470947287977
0.9882,-0.0657954689814,-0.0470947287977
0.9884,-0.0657954689814,-0.0470947287977
0.9886,-0.103392879828,-0.0470947287977
0.9888,-0.103392879828,-0.0470947287977
0.989,-0.103392879828,-0.0470947287977
0.9892,-0.103392879828,-0.0470947287977
0.9894,-0.103392879828,-0.0470947287977
0.9896,-0.0657954689814,-0.0470947287977
0.9898,-0.0281980581349,-0.0470947287977
0.99,-0.0281980581349,-0.0470947287977
0.9902,0.00939935271163,-0.0470947287977
0.9904,0.00939935271163,-0.0470947287977
0.9906,0.00939935271163,-0.0470947287977
0.9908,0.00939935271163,-0.0470947287977
0.991,-0.0281980581349,-0.0470947287977
0.9912,0.00939935271163,-0.0470947287977
0.9914,0.0469967635581,-0.0470947287977
0.9916,0.0845941744046,-0.0470947287977
0.9918,0.122191585251,-0.0470947287977
0.992,0.122191585251,-0.0470947287977
0.9922,0.122191585251,-0.0470947287977
0.9924,0.122191585251,-0.0470947287977
0.9926,0.15743915792,-0.0470947287977
0.9928,0.122191585251,-0.0470947287977
0.993,0.122191585251,-0.0470947287977
0.9932,0.15743915792,-0.0470947287977
0.9934,0.195036568766,-0.0470947287977
0.9936,0.232633979613,-0.0470947287977
0.9938,0.232633979613,-0.0470947287977
0.994,0.270231390459,-0.0470947287977
0.9942,0.232633979613,-0.0470947287977
0.9944,0.232633979613,-0.0470947287977
0.9946,0.232633979613,-0.0470947287977
0.9948,0.232633979613,-0.0470947287977
0.995,0.232633979613,-0.0470947287977
0.9952,0.232633979613,-0.0470947287977
0.9954,0.270231390459,-0.0470947287977
0.9956,0.307828801306,-0.0470947287977
0.9958,0.307828801306,-0.0470947287977
0.996,0.307828801306,-0.0470947287977
0.9962,0.307828801306,-0.0470947287977
0.9964,0.270231390459,-0.0470947287977
0.9966,0.270231390459,-0.0470947287977
0.9968,0.270231390459,-0.0470947287977
0.997,0.270231390459,-0.0470947287977
0.9972,0.307828801306,-0.0470947287977
0.9974,0.345426212152,-0.0470947287977
0.9976,0.345426212152,-0.0470947287977
0.9978,0.345426212152,-0.0470947287977
0.998,0.307828801306,-0.0470947287977
0.9982,0.307828801306,-0.0470947287977
0.9984,0.270231390459,-0.0470947287977
0.9986,0.270231390459,-0.0470947287977
0.9988,0.270231390459,-0.0470947287977
0.999,0.307828801306,-0.0470947287977
0.9992,0.307828801306,-0.0470947287977
0.9994,0.307828801306,-0.0470947287977
0.9996,0.307828801306,-0.0470947287977
0.9998,0.307828801306,-0.0470947287977
1,0.270231390459,-0.0470947287977
