"Latest: Time (s)","Latest: Z-Axis Acceleration (m/sÂ²)","Latest: Potential (mV)"
0,-61.3942220742,10.0547245983
0.0002,-58.4005282355,9.70151413232
0.0004,-55.369236986,9.32475630194
0.0006,-50.6554616011,9.32475630194
0.0008,-45.8288939837,9.32475630194
0.001,-43.9208253832,8.94799847156
0.0012,-42.1231991771,8.57124064118
0.0014,-39.1318551767,8.57124064118
0.0016,-36.1005639272,8.1944828108
0.0018,-33.4052995371,7.44096715003
0.002,-32.6956484074,7.06420931965
0.0022,-32.3572717098,6.68745148927
0.0024,-31.9084526178,5.93393582851
0.0026,-31.7604128126,5.55717799813
0.0028,-30.8228273796,5.18042016774
0.003,-29.3259804603,5.18042016774
0.0032,-27.8667309518,4.45045187138
0.0034,-25.6602329027,4.073694041
0.0036,-22.6289416532,4.073694041
0.0038,-19.785637458,3.32017838024
0.004,-16.7919436193,2.94342054985
0.0042,-12.3390002722,2.94342054985
0.0044,-7.96125174675,2.56666271947
0.0046,-2.6482676265,2.56666271947
0.0048,5.24718865126,2.56666271947
0.005,13.7418536644,2.56666271947
0.0052,21.1884908502,2.56666271947
0.0054,27.5495027978,2.56666271947
0.0056,32.7872920963,2.56666271947
0.0058,37.3154302652,2.56666271947
0.006,41.2067622878,2.56666271947
0.0062,44.3860933425,2.56666271947
0.0064,47.1565525542,2.94342054985
0.0066,49.4758428358,2.94342054985
0.0068,51.5343010797,3.32017838024
0.007,53.216785215,3.69693621062
0.0072,54.6407871509,3.69693621062
0.0074,55.949647016,4.073694041
0.0076,56.9224800216,4.073694041
0.0078,56.6592981457,4.45045187138
0.008,54.3776052749,4.45045187138
0.0082,51.3839114363,5.18042016774
0.0084,47.8286062731,5.55717799813
0.0086,44.3860933425,5.55717799813
0.0088,41.3195545203,5.93393582851
0.009,37.5010674812,6.31069365889
0.0092,33.5368904751,6.68745148927
0.0094,29.269584344,6.68745148927
0.0096,24.59340637,7.06420931965
0.0098,20.3261002389,7.06420931965
0.01,17.5579908653,7.06420931965
0.0102,16.2491310002,7.44096715003
0.0104,16.0987413568,7.44096715003
0.0106,17.1467691842,7.44096715003
0.0108,18.8292533196,7.81772498041
0.011,20.8501141526,7.44096715003
0.0112,23.1341568615,7.81772498041
0.0114,25.5286419648,7.81772498041
0.0116,27.248723511,7.44096715003
0.0118,28.5599332143,7.06420931965
0.012,30.2800147605,7.44096715003
0.0122,32.0024461449,7.44096715003
0.0124,32.9000843289,7.06420931965
0.0126,32.7872920963,7.06420931965
0.0128,32.7496946855,7.06420931965
0.013,31.1048079609,6.31069365889
0.0132,28.4095435709,6.31069365889
0.0134,25.6790316082,6.31069365889
0.0136,22.1613238558,5.93393582851
0.0138,17.633185687,5.55717799813
0.014,16.8107423247,5.55717799813
0.0142,16.6979500922,5.55717799813
0.0144,15.5371300323,5.18042016774
0.0146,14.6770892592,4.82720970176
0.0148,14.7522840809,4.82720970176
0.015,13.7042562535,4.45045187138
0.0152,14.040283113,4.45045187138
0.0154,14.1530753455,4.45045187138
0.0156,15.2387005837,4.073694041
0.0158,20.2532552554,4.073694041
0.016,25.0422254619,4.073694041
0.0162,29.718403436,4.073694041
0.0164,34.8081529293,3.69693621062
0.0166,39.1859014548,3.69693621062
0.0168,42.7788040288,3.69693621062
0.017,45.7349004566,3.69693621062
0.0172,48.3526201868,3.69693621062
0.0174,50.3358836089,3.69693621062
0.0176,50.7494551282,4.073694041
0.0178,50.561468074,4.073694041
0.018,49.0646211547,4.073694041
0.0182,48.4654124193,4.45045187138
0.0184,47.9038010948,4.45045187138
0.0186,44.4236907533,4.45045187138
0.0188,38.7370823628,4.45045187138
0.019,31.7768616798,4.82720970176
0.0192,24.2550296723,5.18042016774
0.0194,16.6603526814,5.18042016774
0.0196,9.6249371767,5.18042016774
0.0198,3.78793914279,5.55717799813
0.02,-1.11382329633,5.55717799813
0.0202,-4.33075176188,5.55717799813
0.0204,-6.27641777319,5.55717799813
0.0206,-8.41007083873,5.55717799813
0.0208,-10.804555942,5.55717799813
0.021,-13.5374177429,5.55717799813
0.0212,-16.3431245273,5.93393582851
0.0214,-17.8023740358,5.93393582851
0.0216,-18.4015827712,5.55717799813
0.0218,-18.5120251655,5.55717799813
0.022,-17.5391921599,5.55717799813
0.0222,-15.8943054354,5.55717799813
0.0224,-14.6582905538,5.55717799813
0.0226,-12.5645847373,5.55717799813
0.0228,-10.8421533529,5.55717799813
0.023,-11.1053352288,5.18042016774
0.0232,-12.1157656453,5.18042016774
0.0234,-13.723054959,4.82720970176
0.0236,-16.3055271165,4.45045187138
0.0238,-19.0360390792,4.45045187138
0.024,-22.0297329179,4.073694041
0.0242,-25.1738163999,3.69693621062
0.0244,-27.7186911466,3.32017838024
0.0246,-29.5891623362,2.94342054985
0.0248,-31.5724257583,2.56666271947
0.025,-33.8541186291,2.18990488909
0.0252,-35.7245898187,2.18990488909
0.0254,-36.6974228244,1.81314705871
0.0256,-36.8854098786,1.43638922833
0.0258,-36.3989933758,1.05963139795
0.026,-34.8645490456,1.05963139795
0.0262,-32.8060908018,0.306115737185
0.0264,-29.9251891956,0.306115737185
0.0266,-27.1946772329,-0.0470947287977
0.0268,-24.01299634,-0.0470947287977
0.027,-20.6080808202,-0.0470947287977
0.0272,-18.2887905386,-0.0470947287977
0.0274,-15.743915792,-0.0470947287977
0.0276,-12.9006115967,-0.0470947287977
0.0278,-9.75652811467,-0.0470947287977
0.028,-6.57719705996,-0.0470947287977
0.0282,-3.95712749159,-0.0470947287977
0.0284,-3.32032134538,-0.0470947287977
0.0286,-3.8819326699,-0.0470947287977
0.0288,-3.84433525905,-0.0470947287977
0.029,-3.62110063215,-0.0470947287977
0.0292,-4.59393363781,-0.0470947287977
0.0294,-6.38921000573,-0.0470947287977
0.0296,-7.84845951421,-0.0470947287977
0.0298,-8.56046048211,-0.0470947287977
0.03,-9.08447439579,-0.0470947287977
0.0302,-9.68133329297,-0.0470947287977
0.0304,-10.0573074014,-0.0470947287977
0.0306,-11.3661672665,-0.0470947287977
0.0308,-12.151013218,-0.0470947287977
0.031,-12.1886106288,-0.0470947287977
0.0312,-13.5750151538,-0.0470947287977
0.0314,-15.1447070566,-0.0470947287977
0.0316,-16.2679297056,-0.0470947287977
0.0318,-17.0175280844,-0.0470947287977
0.032,-17.764776625,-0.0470947287977
0.0322,-17.8399714467,-0.0470947287977
0.0324,-16.6791513868,-0.0470947287977
0.0326,-15.3702915217,-0.0470947287977
0.0328,-13.9486394241,-0.0470947287977
0.033,-13.3870280995,-0.0470947287977
0.0332,-13.0510012401,-0.0470947287977
0.0334,-12.6021821481,-0.0470947287977
0.0336,-13.0510012401,-0.0470947287977
0.0338,-13.7606523698,-0.0470947287977
0.034,-14.5478481594,-0.0470947287977
0.0342,-15.0342646622,-0.0470947287977
0.0344,-14.5478481594,-0.0470947287977
0.0346,-13.6854575481,-0.0470947287977
0.0348,-12.9382090076,-0.0470947287977
0.035,-12.6374297208,-0.0470947287977
0.0352,-12.3390002722,-0.0470947287977
0.0354,-11.8901811802,-0.0470947287977
0.0356,-12.4893899156,-0.0470947287977
0.0358,-13.0134038292,-0.0470947287977
0.036,-12.4517925047,-0.0470947287977
0.0362,-11.6645967151,-0.0470947287977
0.0364,-10.9549455854,-0.0470947287977
0.0366,-9.57089089861,-0.0470947287977
0.0368,-7.81086210336,-0.0470947287977
0.037,-6.61479447081,-0.0470947287977
0.0372,-5.56676664346,-0.0470947287977
0.0374,-4.81716826471,-0.0470947287977
0.0376,-4.92996049725,-0.0470947287977
0.0378,-5.23073978402,-0.0470947287977
0.038,-4.77957085386,-0.0470947287977
0.0382,-4.10751713498,-0.0470947287977
0.0384,-3.69629545385,-0.0470947287977
0.0386,-3.24747636187,-0.0470947287977
0.0388,-2.34748833973,-0.0470947287977
0.039,-2.01146148029,-0.0470947287977
0.0392,-2.49787798311,-0.0470947287977
0.0394,-3.02189189679,-0.0470947287977
0.0396,-3.62110063215,-0.0470947287977
0.0398,-4.44354399442,-0.0470947287977
0.04,-5.04275272979,-0.0470947287977
0.0402,-5.11794755148,-0.0470947287977
0.0404,-4.81716826471,-0.0470947287977
0.0406,-4.22030936752,-0.0470947287977
0.0408,-3.24747636187,-0.0470947287977
0.041,-2.57307280481,-0.0470947287977
0.0412,-2.34748833973,-0.0470947287977
0.0414,-2.16185112367,-0.0470947287977
0.0416,-1.63783721,-0.0470947287977
0.0418,-1.00103106379,-0.0470947287977
0.042,-0.401822328422,-0.0470947287977
0.0422,0.420621033845,-0.0470947287977
0.0424,1.46864886119,-0.0470947287977
0.0426,2.6271190829,-0.0470947287977
0.0428,3.71274432109,-0.0470947287977
0.043,4.57513493238,-0.0470947287977
0.0432,4.91116179182,-0.0470947287977
0.0434,4.61038250505,-0.0470947287977
0.0436,3.97592619702,-0.0470947287977
0.0438,3.82553655363,-0.0470947287977
0.044,3.52710710504,-0.0470947287977
0.0442,3.07828801306,-0.0470947287977
0.0444,2.81510613713,-0.0470947287977
0.0446,2.6271190829,-0.0470947287977
0.0448,2.06785759656,-0.0470947287977
0.045,1.58144109373,-0.0470947287977
0.0452,1.35585662865,-0.0470947287977
0.0454,0.756647893286,-0.0470947287977
0.0456,0.00939935271163,-0.0470947287977
0.0458,-0.178587701521,-0.0470947287977
0.046,-0.216185112367,-0.0470947287977
0.0462,0.122191585251,-0.0470947287977
0.0464,0.944634947518,-0.0470947287977
0.0466,1.87987054233,-0.0470947287977
0.0468,2.81510613713,-0.0470947287977
0.047,3.37671746165,-0.0470947287977
0.0472,4.27435564561,-0.0470947287977
0.0474,5.32238347296,-0.0470947287977
0.0476,6.03438444086,-0.0470947287977
0.0478,6.6688407489,-0.0470947287977
0.048,7.3808417168,-0.0470947287977
0.0482,8.27847990076,-0.0470947287977
0.0484,8.80249381444,-0.0470947287977
0.0486,9.10092326303,-0.0470947287977
0.0488,9.4768973715,-0.0470947287977
0.049,9.25131290642,-0.0470947287977
0.0492,8.65210417105,-0.0470947287977
0.0494,8.20328507907,-0.0470947287977
0.0496,7.30564689511,-0.0470947287977
0.0498,6.40800871115,-0.0470947287977
0.05,5.92159220832,-0.0470947287977
0.0502,5.58321551071,-0.0470947287977
0.0504,4.91116179182,-0.0470947287977
0.0506,4.27435564561,-0.0470947287977
0.0508,4.38714787815,-0.0470947287977
0.051,4.46234269984,-0.0470947287977
0.0512,4.49994011069,-0.0470947287977
0.0514,4.72317473759,-0.0470947287977
0.0516,4.98635661352,-0.0470947287977
0.0518,5.62081292155,-0.0470947287977
0.052,6.29521647861,-0.0470947287977
0.0522,7.19285466257,-0.0470947287977
0.0524,8.27847990076,-0.0470947287977
0.0526,9.17611808472,-0.0470947287977
0.0528,9.99856144699,-0.0470947287977
0.053,10.7481598257,-0.0470947287977
0.0532,11.4578109555,-0.0470947287977
0.0534,12.2450067451,-0.0470947287977
0.0536,12.9194103021,-0.0470947287977
0.0538,13.3306319833,-0.0470947287977
0.054,12.9922552856,-0.0470947287977
0.0542,12.5810336045,-0.0470947287977
0.0544,12.5810336045,-0.0470947287977
0.0546,11.9465772965,-0.0470947287977
0.0548,11.0465892743,-0.0470947287977
0.055,10.2617433229,-0.0470947287977
0.0552,9.25131290642,-0.0470947287977
0.0554,8.09049284653,-0.0470947287977
0.0556,6.93202262482,-0.0470947287977
0.0558,5.73360515409,-0.0470947287977
0.056,4.57513493238,-0.0470947287977
0.0562,3.67514691025,-0.0470947287977
0.0564,2.96549578052,-0.0470947287977
0.0566,2.403884456,-0.0470947287977
0.0568,2.17829999092,-0.0470947287977
0.057,2.06785759656,-0.0470947287977
0.0572,2.03026018571,-0.0470947287977
0.0574,2.03026018571,-0.0470947287977
0.0576,1.76707830979,-0.0470947287977
0.0578,1.87987054233,-0.0470947287977
0.058,2.66471649375,-0.0470947287977
0.0582,3.11353558573,-0.0470947287977
0.0584,3.30152263996,-0.0470947287977
0.0586,3.86313396448,-0.0470947287977
0.0588,4.27435564561,-0.0470947287977
0.059,4.12396600223,-0.0470947287977
0.0592,4.01352360786,-0.0470947287977
0.0594,3.67514691025,-0.0470947287977
0.0596,2.77750872629,-0.0470947287977
0.0598,1.69188348809,-0.0470947287977
0.06,0.646205498924,-0.0470947287977
0.0602,-0.589809382654,-0.0470947287977
0.0604,-1.82347442606,-0.0470947287977
0.0606,-2.90909966425,-0.0470947287977
0.0608,-4.25790677837,-0.0470947287977
0.061,-5.75240385951,-0.0470947287977
0.0612,-7.10121097363,-0.0470947287977
0.0614,-8.44766824957,-0.0470947287977
0.0616,-9.68133329297,-0.0470947287977
0.0618,-10.9549455854,-0.0470947287977
0.062,-12.1157656453,-0.0470947287977
0.0622,-12.6750271316,-0.0470947287977
0.0624,-12.9006115967,-0.0470947287977
0.0626,-12.9758064184,-0.0470947287977
0.0628,-12.6750271316,-0.0470947287977
0.063,-12.1886106288,-0.0470947287977
0.0632,-11.8901811802,-0.0470947287977
0.0634,-11.6293491425,-0.0470947287977
0.0636,-10.9549455854,-0.0470947287977
0.0638,-10.3933342609,-0.0470947287977
0.064,-9.86932034721,-0.0470947287977
0.0642,-9.00927957409,-0.0470947287977
0.0644,-8.48526566042,-0.0470947287977
0.0646,-8.14923880098,-0.0470947287977
0.0648,-7.700419709,-0.0470947287977
0.065,-7.47483524392,-0.0470947287977
0.0652,-7.51243265477,-0.0470947287977
0.0654,-7.99884915759,-0.0470947287977
0.0656,-8.59805789296,-0.0470947287977
0.0658,-9.19491679015,-0.0470947287977
0.066,-9.9445151689,-0.0470947287977
0.0662,-10.618918726,-0.0470947287977
0.0664,-11.1781802123,-0.0470947287977
0.0666,-11.702194126,-0.0470947287977
0.0668,-12.376597683,-0.0470947287977
0.067,-12.9758064184,-0.0470947287977
0.0672,-13.1990410453,-0.0470947287977
0.0674,-13.4622229212,-0.0470947287977
0.0676,-13.5750151538,-0.0470947287977
0.0678,-13.3118332778,-0.0470947287977
0.068,-13.0510012401,-0.0470947287977
0.0682,-12.4517925047,-0.0470947287977
0.0684,-11.253375034,-0.0470947287977
0.0686,-9.90691775805,-0.0470947287977
0.0688,-8.78369510901,-0.0470947287977
0.069,-7.58762747646,-0.0470947287977
0.0692,-6.31401518403,-0.0470947287977
0.0694,-5.08035014063,-0.0470947287977
0.0696,-3.95712749159,-0.0470947287977
0.0698,-2.8715022534,-0.0470947287977
0.07,-1.78822685339,-0.0470947287977
0.0702,-0.850641420402,-0.0470947287977
0.0704,-0.253782523214,-0.0470947287977
0.0706,0.307828801306,-0.0470947287977
0.0708,0.944634947518,-0.0470947287977
0.071,1.16786957442,-0.0470947287977
0.0712,1.16786957442,-0.0470947287977
0.0714,1.01982976921,-0.0470947287977
0.0716,0.533413266385,-0.0470947287977
0.0718,0.0845941744046,-0.0470947287977
0.072,-0.178587701521,-0.0470947287977
0.0722,-0.514614560961,-0.0470947287977
0.0724,-0.963433652942,-0.0470947287977
0.0726,-1.18901811802,-0.0470947287977
0.0728,-1.26421293971,-0.0470947287977
0.073,-1.41225274492,-0.0470947287977
0.0732,-1.22661552887,-0.0470947287977
0.0734,-0.963433652942,-0.0470947287977
0.0736,-0.627406793501,-0.0470947287977
0.0738,-0.103392879828,-0.0470947287977
0.074,0.571010677231,-0.0470947287977
0.0742,1.46864886119,-0.0470947287977
0.0744,2.66471649375,-0.0470947287977
0.0746,3.71274432109,-0.0470947287977
0.0748,4.68557732675,-0.0470947287977
0.075,5.6584103324,-0.0470947287977
0.0752,6.48320353284,-0.0470947287977
0.0754,7.15525725172,-0.0470947287977
0.0756,8.01529802484,-0.0470947287977
0.0758,8.57690934936,-0.0470947287977
0.076,8.76489640359,-0.0470947287977
0.0762,8.99048086867,-0.0470947287977
0.0764,9.21371549557,-0.0470947287977
0.0766,9.02572844134,-0.0470947287977
0.0768,8.91528604698,-0.0470947287977
0.077,8.65210417105,-0.0470947287977
0.0772,7.98005045217,-0.0470947287977
0.0774,7.19285466257,-0.0470947287977
0.0776,6.55604851636,-0.0470947287977
0.0778,5.88399479748,-0.0470947287977
0.078,5.28478606211,-0.0470947287977
0.0782,4.83596697013,-0.0470947287977
0.0784,4.3495504673,-0.0470947287977
0.0786,4.05112101871,-0.0470947287977
0.0788,3.93832878617,-0.0470947287977
0.079,3.86313396448,-0.0470947287977
0.0792,4.08636859138,-0.0470947287977
0.0794,4.38714787815,-0.0470947287977
0.0796,4.57513493238,-0.0470947287977
0.0798,5.02395402436,-0.0470947287977
0.08,5.73360515409,-0.0470947287977
0.0802,6.40800871115,-0.0470947287977
0.0804,7.19285466257,-0.0470947287977
0.0806,8.05289543569,-0.0470947287977
0.0808,8.466466955,-0.0470947287977
0.081,8.87768863613,-0.0470947287977
0.0812,9.51214494416,-0.0470947287977
0.0814,9.85052164178,-0.0470947287977
0.0816,9.96331387432,-0.0470947287977
0.0818,10.0737562687,-0.0470947287977
0.082,10.0737562687,-0.0470947287977
0.0822,9.81292423094,-0.0470947287977
0.0824,9.51214494416,-0.0470947287977
0.0826,9.21371549557,-0.0470947287977
0.0828,8.6145067602,-0.0470947287977
0.083,7.98005045217,-0.0470947287977
0.0832,7.30564689511,-0.0470947287977
0.0834,6.48320353284,-0.0470947287977
0.0836,5.95918961917,-0.0470947287977
0.0838,5.51037052719,-0.0470947287977
0.084,5.02395402436,-0.0470947287977
0.0842,4.6479799159,-0.0470947287977
0.0844,4.27435564561,-0.0470947287977
0.0846,4.08636859138,-0.0470947287977
0.0848,4.16156341307,-0.0470947287977
0.085,4.27435564561,-0.0470947287977
0.0852,4.27435564561,-0.0470947287977
0.0854,4.49994011069,-0.0470947287977
0.0856,4.91116179182,-0.0470947287977
0.0858,5.13439641873,-0.0470947287977
0.086,5.47277311634,-0.0470947287977
0.0862,6.03438444086,-0.0470947287977
0.0864,6.22002165692,-0.0470947287977
0.0866,6.3704113003,-0.0470947287977
0.0868,6.48320353284,-0.0470947287977
0.087,6.40800871115,-0.0470947287977
0.0872,6.40800871115,-0.0470947287977
0.0874,6.25761906776,-0.0470947287977
0.0876,5.95918961917,-0.0470947287977
0.0878,5.3599808838,-0.0470947287977
0.088,4.68557732675,-0.0470947287977
0.0882,4.08636859138,-0.0470947287977
0.0884,3.3391200508,-0.0470947287977
0.0886,2.51667668854,-0.0470947287977
0.0888,1.43105145034,-0.0470947287977
0.089,0.571010677231,-0.0470947287977
0.0892,-0.103392879828,-0.0470947287977
0.0894,-1.03862847463,-0.0470947287977
0.0896,-1.75062944254,-0.0470947287977
0.0898,-2.34748833973,-0.0470947287977
0.09,-3.13468412933,-0.0470947287977
0.0902,-3.77149027554,-0.0470947287977
0.0904,-4.25790677837,-0.0470947287977
0.0906,-4.51873881611,-0.0470947287977
0.0908,-4.59393363781,-0.0470947287977
0.091,-4.77957085386,-0.0470947287977
0.0912,-4.85476567555,-0.0470947287977
0.0914,-4.8923630864,-0.0470947287977
0.0916,-4.8923630864,-0.0470947287977
0.0918,-4.70672587035,-0.0470947287977
0.092,-4.6691284595,-0.0470947287977
0.0922,-4.81716826471,-0.0470947287977
0.0924,-4.96755790809,-0.0470947287977
0.0926,-5.19314237317,-0.0470947287977
0.0928,-5.56676664346,-0.0470947287977
0.093,-5.82759868121,-0.0470947287977
0.0932,-5.9027935029,-0.0470947287977
0.0934,-6.27641777319,-0.0470947287977
0.0936,-6.87562650855,-0.0470947287977
0.0938,-7.39964042223,-0.0470947287977
0.094,-8.03644656844,-0.0470947287977
0.0942,-8.78369510901,-0.0470947287977
0.0944,-9.49569607692,-0.0470947287977
0.0946,-10.2429446175,-0.0470947287977
0.0948,-10.8421533529,-0.0470947287977
0.095,-11.2909724448,-0.0470947287977
0.0952,-11.5917517316,-0.0470947287977
0.0954,-11.8149863585,-0.0470947287977
0.0956,-12.0405708236,-0.0470947287977
0.0958,-12.2638054505,-0.0470947287977
0.096,-12.3390002722,-0.0470947287977
0.0962,-12.2638054505,-0.0470947287977
0.0964,-12.151013218,-0.0470947287977
0.0966,-11.7397915368,-0.0470947287977
0.0968,-11.1053352288,-0.0470947287977
0.097,-10.5813213151,-0.0470947287977
0.0972,-10.2053472066,-0.0470947287977
0.0974,-9.60848830946,-0.0470947287977
0.0976,-8.97168216325,-0.0470947287977
0.0978,-8.48526566042,-0.0470947287977
0.098,-8.11164139013,-0.0470947287977
0.0982,-7.81086210336,-0.0470947287977
0.0984,-7.55003006561,-0.0470947287977
0.0986,-7.24925077884,-0.0470947287977
0.0988,-6.87562650855,-0.0470947287977
0.099,-6.57719705996,-0.0470947287977
0.0992,-6.50200223827,-0.0470947287977
0.0994,-6.42680741657,-0.0470947287977
0.0996,-6.35161259488,-0.0470947287977
0.0998,-6.53959964911,-0.0470947287977
0.1,-6.61479447081,-0.0470947287977
0.1002,-6.65239188165,-0.0470947287977
0.1004,-6.53959964911,-0.0470947287977
0.1006,-6.38921000573,-0.0470947287977
0.1008,-6.38921000573,-0.0470947287977
0.101,-6.12837796798,-0.0470947287977
0.1012,-5.64196146515,-0.0470947287977
0.1014,-5.23073978402,-0.0470947287977
0.1016,-4.92996049725,-0.0470947287977
0.1018,-4.59393363781,-0.0470947287977
0.102,-4.06991972413,-0.0470947287977
0.1022,-3.35791875623,-0.0470947287977
0.1024,-2.61067021565,-0.0470947287977
0.1026,-1.78822685339,-0.0470947287977
0.1028,-1.18901811802,-0.0470947287977
0.103,-0.364224917575,-0.0470947287977
0.1032,0.420621033845,-0.0470947287977
0.1034,0.907037536672,-0.0470947287977
0.1036,1.31825921781,-0.0470947287977
0.1038,1.87987054233,-0.0470947287977
0.104,2.403884456,-0.0470947287977
0.1042,2.6271190829,-0.0470947287977
0.1044,2.89030095882,-0.0470947287977
0.1046,3.22632781827,-0.0470947287977
0.1048,3.52710710504,-0.0470947287977
0.105,3.71274432109,-0.0470947287977
0.1052,3.6375494994,-0.0470947287977
0.1054,3.48950969419,-0.0470947287977
0.1056,3.45191228334,-0.0470947287977
0.1058,3.48950969419,-0.0470947287977
0.106,3.48950969419,-0.0470947287977
0.1062,3.4143148725,-0.0470947287977
0.1064,3.4143148725,-0.0470947287977
0.1066,3.56470451588,-0.0470947287977
0.1068,3.82553655363,-0.0470947287977
0.107,3.90073137532,-0.0470947287977
0.1072,4.01352360786,-0.0470947287977
0.1074,4.31195305646,-0.0470947287977
0.1076,4.6479799159,-0.0470947287977
0.1078,4.79836955928,-0.0470947287977
0.108,5.13439641873,-0.0470947287977
0.1082,5.6584103324,-0.0470947287977
0.1084,6.06963201353,-0.0470947287977
0.1086,6.40800871115,-0.0470947287977
0.1088,6.70643815974,-0.0470947287977
0.109,6.93202262482,-0.0470947287977
0.1092,7.23045207342,-0.0470947287977
0.1094,7.52888152201,-0.0470947287977
0.1096,7.6792711654,-0.0470947287977
0.1098,7.6040763437,-0.0470947287977
0.11,7.64167375455,-0.0470947287977
0.1102,7.71686857624,-0.0470947287977
0.1104,7.64167375455,-0.0470947287977
0.1106,7.49363394934,-0.0470947287977
0.1108,7.3808417168,-0.0470947287977
0.111,7.19285466257,-0.0470947287977
0.1112,7.00721744652,-0.0470947287977
0.1114,6.74403557059,-0.0470947287977
0.1116,6.63124333805,-0.0470947287977
0.1118,6.63124333805,-0.0470947287977
0.112,6.55604851636,-0.0470947287977
0.1122,6.33281388946,-0.0470947287977
0.1124,6.25761906776,-0.0470947287977
0.1126,6.22002165692,-0.0470947287977
0.1128,6.22002165692,-0.0470947287977
0.113,6.25761906776,-0.0470947287977
0.1132,6.40800871115,-0.0470947287977
0.1134,6.3704113003,-0.0470947287977
0.1136,6.55604851636,-0.0470947287977
0.1138,6.78163298144,-0.0470947287977
0.114,6.89442521398,-0.0470947287977
0.1142,6.96962003567,-0.0470947287977
0.1144,7.08006243003,-0.0470947287977
0.1146,7.00721744652,-0.0470947287977
0.1148,6.89442521398,-0.0470947287977
0.115,6.85682780313,-0.0470947287977
0.1152,6.85682780313,-0.0470947287977
0.1154,6.78163298144,-0.0470947287977
0.1156,6.59364592721,-0.0470947287977
0.1158,6.40800871115,-0.0470947287977
0.116,6.14482683523,-0.0470947287977
0.1162,5.92159220832,-0.0470947287977
0.1164,5.58321551071,-0.0470947287977
0.1166,5.20959124042,-0.0470947287977
0.1168,4.87356438098,-0.0470947287977
0.117,4.49994011069,-0.0470947287977
0.1172,4.16156341307,-0.0470947287977
0.1174,3.97592619702,-0.0470947287977
0.1176,3.67514691025,-0.0470947287977
0.1178,3.30152263996,-0.0470947287977
0.118,3.07828801306,-0.0470947287977
0.1182,2.70231390459,-0.0470947287977
0.1184,2.36628704515,-0.0470947287977
0.1186,2.17829999092,-0.0470947287977
0.1188,2.06785759656,-0.0470947287977
0.119,1.87987054233,-0.0470947287977
0.1192,1.69188348809,-0.0470947287977
0.1194,1.58144109373,-0.0470947287977
0.1196,1.43105145034,-0.0470947287977
0.1198,1.16786957442,-0.0470947287977
0.12,1.01982976921,-0.0470947287977
0.1202,0.681453071593,-0.0470947287977
0.1204,0.383023622999,-0.0470947287977
0.1206,0.0845941744046,-0.0470947287977
0.1208,-0.253782523214,-0.0470947287977
0.121,-0.477017150115,-0.0470947287977
0.1212,-0.777796436887,-0.0470947287977
0.1214,-1.18901811802,-0.0470947287977
0.1216,-1.60023979915,-0.0470947287977
0.1218,-2.16185112367,-0.0470947287977
0.122,-2.79630743171,-0.0470947287977
0.1222,-3.20987895102,-0.0470947287977
0.1224,-3.62110063215,-0.0470947287977
0.1226,-4.10751713498,-0.0470947287977
0.1228,-4.48114140527,-0.0470947287977
0.123,-4.74432328119,-0.0470947287977
0.1232,-5.00515531894,-0.0470947287977
0.1234,-5.37877958923,-0.0470947287977
0.1236,-5.679558876,-0.0470947287977
0.1238,-5.94039091375,-0.0470947287977
0.124,-6.27641777319,-0.0470947287977
0.1242,-6.46440482742,-0.0470947287977
0.1244,-6.53959964911,-0.0470947287977
0.1246,-6.57719705996,-0.0470947287977
0.1248,-6.53959964911,-0.0470947287977
0.125,-6.53959964911,-0.0470947287977
0.1252,-6.61479447081,-0.0470947287977
0.1254,-6.6899892925,-0.0470947287977
0.1256,-6.72523686517,-0.0470947287977
0.1258,-6.76283427601,-0.0470947287977
0.126,-6.87562650855,-0.0470947287977
0.1262,-7.06361356279,-0.0470947287977
0.1264,-7.06361356279,-0.0470947287977
0.1266,-6.98841874109,-0.0470947287977
0.1268,-6.98841874109,-0.0470947287977
0.127,-6.98841874109,-0.0470947287977
0.1272,-7.10121097363,-0.0470947287977
0.1274,-7.21165336799,-0.0470947287977
0.1276,-7.43723783307,-0.0470947287977
0.1278,-7.55003006561,-0.0470947287977
0.128,-7.58762747646,-0.0470947287977
0.1282,-7.58762747646,-0.0470947287977
0.1284,-7.58762747646,-0.0470947287977
0.1286,-7.51243265477,-0.0470947287977
0.1288,-7.36204301138,-0.0470947287977
0.129,-7.21165336799,-0.0470947287977
0.1292,-7.06361356279,-0.0470947287977
0.1294,-6.9132239194,-0.0470947287977
0.1296,-6.80043168686,-0.0470947287977
0.1298,-6.72523686517,-0.0470947287977
0.13,-6.46440482742,-0.0470947287977
0.1302,-6.09078055713,-0.0470947287977
0.1304,-5.75240385951,-0.0470947287977
0.1306,-5.37877958923,-0.0470947287977
0.1308,-4.96755790809,-0.0470947287977
0.131,-4.70672587035,-0.0470947287977
0.1312,-4.40594658357,-0.0470947287977
0.1314,-4.06991972413,-0.0470947287977
0.1316,-3.80673784821,-0.0470947287977
0.1318,-3.62110063215,-0.0470947287977
0.132,-3.39551616707,-0.0470947287977
0.1322,-3.17228154017,-0.0470947287977
0.1324,-2.90909966425,-0.0470947287977
0.1326,-2.57307280481,-0.0470947287977
0.1328,-2.30989092888,-0.0470947287977
0.133,-2.16185112367,-0.0470947287977
0.1332,-2.04905889113,-0.0470947287977
0.1334,-1.97386406944,-0.0470947287977
0.1336,-1.82347442606,-0.0470947287977
0.1338,-1.60023979915,-0.0470947287977
0.134,-1.41225274492,-0.0470947287977
0.1342,-1.18901811802,-0.0470947287977
0.1344,-0.925836242095,-0.0470947287977
0.1346,-0.740199026041,-0.0470947287977
0.1348,-0.552211971808,-0.0470947287977
0.135,-0.216185112367,-0.0470947287977
0.1352,0.0469967635581,-0.0470947287977
0.1354,0.195036568766,-0.0470947287977
0.1356,0.420621033845,-0.0470947287977
0.1358,0.756647893286,-0.0470947287977
0.136,1.0950245909,-0.0470947287977
0.1362,1.46864886119,-0.0470947287977
0.1364,1.80467572063,-0.0470947287977
0.1366,1.99266277486,-0.0470947287977
0.1368,2.21589740177,-0.0470947287977
0.137,2.55427409938,-0.0470947287977
0.1372,2.70231390459,-0.0470947287977
0.1374,2.92789836967,-0.0470947287977
0.1376,3.11353558573,-0.0470947287977
0.1378,3.26392522911,-0.0470947287977
0.138,3.37671746165,-0.0470947287977
0.1382,3.52710710504,-0.0470947287977
0.1384,3.6375494994,-0.0470947287977
0.1386,3.75034173194,-0.0470947287977
0.1388,3.82553655363,-0.0470947287977
0.139,3.71274432109,-0.0470947287977
0.1392,3.71274432109,-0.0470947287977
0.1394,3.90073137532,-0.0470947287977
0.1396,4.01352360786,-0.0470947287977
0.1398,4.08636859138,-0.0470947287977
0.14,4.23675823477,-0.0470947287977
0.1402,4.27435564561,-0.0470947287977
0.1404,4.31195305646,-0.0470947287977
0.1406,4.38714787815,-0.0470947287977
0.1408,4.424745289,-0.0470947287977
0.141,4.46234269984,-0.0470947287977
0.1412,4.61038250505,-0.0470947287977
0.1414,4.72317473759,-0.0470947287977
0.1416,4.76077214844,-0.0470947287977
0.1418,4.94875920267,-0.0470947287977
0.142,5.17199382957,-0.0470947287977
0.1422,5.24718865126,-0.0470947287977
0.1424,5.20959124042,-0.0470947287977
0.1426,5.17199382957,-0.0470947287977
0.1428,5.13439641873,-0.0470947287977
0.143,5.17199382957,-0.0470947287977
0.1432,5.20959124042,-0.0470947287977
0.1434,5.17199382957,-0.0470947287977
0.1436,5.17199382957,-0.0470947287977
0.1438,5.13439641873,-0.0470947287977
0.144,5.06155143521,-0.0470947287977
0.1442,4.94875920267,-0.0470947287977
0.1444,4.79836955928,-0.0470947287977
0.1446,4.6479799159,-0.0470947287977
0.1448,4.53753752154,-0.0470947287977
0.145,4.424745289,-0.0470947287977
0.1452,4.23675823477,-0.0470947287977
0.1454,4.19916082392,-0.0470947287977
0.1456,4.27435564561,-0.0470947287977
0.1458,4.16156341307,-0.0470947287977
0.146,3.86313396448,-0.0470947287977
0.1462,3.71274432109,-0.0470947287977
0.1464,3.59995208855,-0.0470947287977
0.1466,3.52710710504,-0.0470947287977
0.1468,3.4143148725,-0.0470947287977
0.147,3.30152263996,-0.0470947287977
0.1472,3.22632781827,-0.0470947287977
0.1474,3.15113299657,-0.0470947287977
0.1476,3.07828801306,-0.0470947287977
0.1478,2.96549578052,-0.0470947287977
0.148,2.81510613713,-0.0470947287977
0.1482,2.6271190829,-0.0470947287977
0.1484,2.44148186684,-0.0470947287977
0.1486,2.1054550074,-0.0470947287977
0.1488,1.91746795317,-0.0470947287977
0.149,1.91746795317,-0.0470947287977
0.1492,1.76707830979,-0.0470947287977
0.1494,1.58144109373,-0.0470947287977
0.1496,1.31825921781,-0.0470947287977
0.1498,1.13262200175,-0.0470947287977
0.15,0.907037536672,-0.0470947287977
0.1502,0.681453071593,-0.0470947287977
0.1504,0.458218444692,-0.0470947287977
0.1506,0.232633979613,-0.0470947287977
0.1508,-0.0281980581349,-0.0470947287977
0.151,-0.140990290674,-0.0470947287977
0.1512,-0.29137993406,-0.0470947287977
0.1514,-0.439419739268,-0.0470947287977
0.1516,-0.665004204347,-0.0470947287977
0.1518,-0.888238831249,-0.0470947287977
0.152,-1.18901811802,-0.0470947287977
0.1522,-1.41225274492,-0.0470947287977
0.1524,-1.60023979915,-0.0470947287977
0.1526,-1.67543462085,-0.0470947287977
0.1528,-1.75062944254,-0.0470947287977
0.153,-1.97386406944,-0.0470947287977
0.1532,-2.12425371283,-0.0470947287977
0.1534,-2.19944853452,-0.0470947287977
0.1536,-2.46028057227,-0.0470947287977
0.1538,-2.6482676265,-0.0470947287977
0.154,-2.79630743171,-0.0470947287977
0.1542,-2.94669707509,-0.0470947287977
0.1544,-3.05948930763,-0.0470947287977
0.1546,-3.05948930763,-0.0470947287977
0.1548,-3.13468412933,-0.0470947287977
0.155,-3.20987895102,-0.0470947287977
0.1552,-3.32032134538,-0.0470947287977
0.1554,-3.47071098877,-0.0470947287977
0.1556,-3.62110063215,-0.0470947287977
0.1558,-3.658698043,-0.0470947287977
0.156,-3.69629545385,-0.0470947287977
0.1562,-3.69629545385,-0.0470947287977
0.1564,-3.77149027554,-0.0470947287977
0.1566,-3.91953008075,-0.0470947287977
0.1568,-3.91953008075,-0.0470947287977
0.157,-3.91953008075,-0.0470947287977
0.1572,-3.95712749159,-0.0470947287977
0.1574,-4.10751713498,-0.0470947287977
0.1576,-4.18271195667,-0.0470947287977
0.1578,-4.18271195667,-0.0470947287977
0.158,-4.18271195667,-0.0470947287977
0.1582,-4.10751713498,-0.0470947287977
0.1584,-3.95712749159,-0.0470947287977
0.1586,-3.91953008075,-0.0470947287977
0.1588,-3.84433525905,-0.0470947287977
0.159,-3.84433525905,-0.0470947287977
0.1592,-3.8819326699,-0.0470947287977
0.1594,-3.77149027554,-0.0470947287977
0.1596,-3.58350322131,-0.0470947287977
0.1598,-3.50830839961,-0.0470947287977
0.16,-3.39551616707,-0.0470947287977
0.1602,-3.28272393454,-0.0470947287977
0.1604,-3.05948930763,-0.0470947287977
0.1606,-2.8715022534,-0.0470947287977
0.1608,-2.79630743171,-0.0470947287977
0.161,-2.79630743171,-0.0470947287977
0.1612,-2.76105985904,-0.0470947287977
0.1614,-2.72346244819,-0.0470947287977
0.1616,-2.68586503735,-0.0470947287977
0.1618,-2.49787798311,-0.0470947287977
0.162,-2.30989092888,-0.0470947287977
0.1622,-2.19944853452,-0.0470947287977
0.1624,-2.08665630198,-0.0470947287977
0.1626,-2.01146148029,-0.0470947287977
0.1628,-1.93626665859,-0.0470947287977
0.163,-1.82347442606,-0.0470947287977
0.1632,-1.71303203169,-0.0470947287977
0.1634,-1.71303203169,-0.0470947287977
0.1636,-1.63783721,-0.0470947287977
0.1638,-1.41225274492,-0.0470947287977
0.164,-1.15142070717,-0.0470947287977
0.1642,-0.925836242095,-0.0470947287977
0.1644,-0.777796436887,-0.0470947287977
0.1646,-0.627406793501,-0.0470947287977
0.1648,-0.514614560961,-0.0470947287977
0.165,-0.401822328422,-0.0470947287977
0.1652,-0.29137993406,-0.0470947287977
0.1654,-0.103392879828,-0.0470947287977
0.1656,0.0845941744046,-0.0470947287977
0.1658,0.232633979613,-0.0470947287977
0.166,0.345426212152,-0.0470947287977
0.1662,0.495815855538,-0.0470947287977
0.1664,0.646205498924,-0.0470947287977
0.1666,0.719050482439,-0.0470947287977
0.1668,0.756647893286,-0.0470947287977
0.167,0.719050482439,-0.0470947287977
0.1672,0.756647893286,-0.0470947287977
0.1674,0.869440125825,-0.0470947287977
0.1676,1.05742718006,-0.0470947287977
0.1678,1.16786957442,-0.0470947287977
0.168,1.24306439611,-0.0470947287977
0.1682,1.31825921781,-0.0470947287977
0.1684,1.35585662865,-0.0470947287977
0.1686,1.3934540395,-0.0470947287977
0.1688,1.46864886119,-0.0470947287977
0.169,1.58144109373,-0.0470947287977
0.1692,1.61903850458,-0.0470947287977
0.1694,1.72948089894,-0.0470947287977
0.1696,1.87987054233,-0.0470947287977
0.1698,2.06785759656,-0.0470947287977
0.17,2.21589740177,-0.0470947287977
0.1702,2.47907927769,-0.0470947287977
0.1704,2.47907927769,-0.0470947287977
0.1706,2.47907927769,-0.0470947287977
0.1708,2.51667668854,-0.0470947287977
0.171,2.6271190829,-0.0470947287977
0.1712,2.81510613713,-0.0470947287977
0.1714,2.81510613713,-0.0470947287977
0.1716,2.89030095882,-0.0470947287977
0.1718,2.96549578052,-0.0470947287977
0.172,2.96549578052,-0.0470947287977
0.1722,2.96549578052,-0.0470947287977
0.1724,2.92789836967,-0.0470947287977
0.1726,2.92789836967,-0.0470947287977
0.1728,2.85270354798,-0.0470947287977
0.173,2.77750872629,-0.0470947287977
0.1732,2.81510613713,-0.0470947287977
0.1734,2.85270354798,-0.0470947287977
0.1736,2.85270354798,-0.0470947287977
0.1738,2.85270354798,-0.0470947287977
0.174,2.77750872629,-0.0470947287977
0.1742,2.66471649375,-0.0470947287977
0.1744,2.6271190829,-0.0470947287977
0.1746,2.6271190829,-0.0470947287977
0.1748,2.6271190829,-0.0470947287977
0.175,2.55427409938,-0.0470947287977
0.1752,2.51667668854,-0.0470947287977
0.1754,2.51667668854,-0.0470947287977
0.1756,2.51667668854,-0.0470947287977
0.1758,2.51667668854,-0.0470947287977
0.176,2.51667668854,-0.0470947287977
0.1762,2.44148186684,-0.0470947287977
0.1764,2.21589740177,-0.0470947287977
0.1766,2.1054550074,-0.0470947287977
0.1768,2.06785759656,-0.0470947287977
0.177,2.03026018571,-0.0470947287977
0.1772,1.91746795317,-0.0470947287977
0.1774,1.80467572063,-0.0470947287977
0.1776,1.61903850458,-0.0470947287977
0.1778,1.46864886119,-0.0470947287977
0.178,1.35585662865,-0.0470947287977
0.1782,1.24306439611,-0.0470947287977
0.1784,1.0950245909,-0.0470947287977
0.1786,0.944634947518,-0.0470947287977
0.1788,0.794245304132,-0.0470947287977
0.179,0.681453071593,-0.0470947287977
0.1792,0.571010677231,-0.0470947287977
0.1794,0.533413266385,-0.0470947287977
0.1796,0.420621033845,-0.0470947287977
0.1798,0.195036568766,-0.0470947287977
0.18,0.0469967635581,-0.0470947287977
0.1802,-0.0281980581349,-0.0470947287977
0.1804,-0.0657954689814,-0.0470947287977
0.1806,-0.178587701521,-0.0470947287977
0.1808,-0.216185112367,-0.0470947287977
0.181,-0.328977344907,-0.0470947287977
0.1812,-0.439419739268,-0.0470947287977
0.1814,-0.514614560961,-0.0470947287977
0.1816,-0.589809382654,-0.0470947287977
0.1818,-0.665004204347,-0.0470947287977
0.182,-0.777796436887,-0.0470947287977
0.1822,-0.925836242095,-0.0470947287977
0.1824,-1.03862847463,-0.0470947287977
0.1826,-1.07622588548,-0.0470947287977
0.1828,-1.11382329633,-0.0470947287977
0.183,-1.18901811802,-0.0470947287977
0.1832,-1.30181035056,-0.0470947287977
0.1834,-1.48744756661,-0.0470947287977
0.1836,-1.67543462085,-0.0470947287977
0.1838,-1.71303203169,-0.0470947287977
0.184,-1.75062944254,-0.0470947287977
0.1842,-1.8610718369,-0.0470947287977
0.1844,-1.8610718369,-0.0470947287977
0.1846,-1.93626665859,-0.0470947287977
0.1848,-2.04905889113,-0.0470947287977
0.185,-2.01146148029,-0.0470947287977
0.1852,-2.01146148029,-0.0470947287977
0.1854,-2.01146148029,-0.0470947287977
0.1856,-2.08665630198,-0.0470947287977
0.1858,-2.12425371283,-0.0470947287977
0.186,-2.08665630198,-0.0470947287977
0.1862,-2.04905889113,-0.0470947287977
0.1864,-1.97386406944,-0.0470947287977
0.1866,-1.8610718369,-0.0470947287977
0.1868,-1.93626665859,-0.0470947287977
0.187,-1.97386406944,-0.0470947287977
0.1872,-1.93626665859,-0.0470947287977
0.1874,-1.8610718369,-0.0470947287977
0.1876,-1.8610718369,-0.0470947287977
0.1878,-1.8610718369,-0.0470947287977
0.188,-1.8610718369,-0.0470947287977
0.1882,-1.89866924775,-0.0470947287977
0.1884,-1.89866924775,-0.0470947287977
0.1886,-1.8610718369,-0.0470947287977
0.1888,-1.82347442606,-0.0470947287977
0.189,-1.8610718369,-0.0470947287977
0.1892,-1.93626665859,-0.0470947287977
0.1894,-1.93626665859,-0.0470947287977
0.1896,-1.8610718369,-0.0470947287977
0.1898,-1.75062944254,-0.0470947287977
0.19,-1.63783721,-0.0470947287977
0.1902,-1.56264238831,-0.0470947287977
0.1904,-1.56264238831,-0.0470947287977
0.1906,-1.52504497746,-0.0470947287977
0.1908,-1.37465533408,-0.0470947287977
0.191,-1.30181035056,-0.0470947287977
0.1912,-1.22661552887,-0.0470947287977
0.1914,-1.18901811802,-0.0470947287977
0.1916,-1.07622588548,-0.0470947287977
0.1918,-1.00103106379,-0.0470947287977
0.192,-0.888238831249,-0.0470947287977
0.1922,-0.702601615194,-0.0470947287977
0.1924,-0.627406793501,-0.0470947287977
0.1926,-0.627406793501,-0.0470947287977
0.1928,-0.665004204347,-0.0470947287977
0.193,-0.665004204347,-0.0470947287977
0.1932,-0.552211971808,-0.0470947287977
0.1934,-0.477017150115,-0.0470947287977
0.1936,-0.401822328422,-0.0470947287977
0.1938,-0.401822328422,-0.0470947287977
0.194,-0.364224917575,-0.0470947287977
0.1942,-0.328977344907,-0.0470947287977
0.1944,-0.216185112367,-0.0470947287977
0.1946,-0.178587701521,-0.0470947287977
0.1948,-0.216185112367,-0.0470947287977
0.195,-0.178587701521,-0.0470947287977
0.1952,-0.103392879828,-0.0470947287977
0.1954,-0.0657954689814,-0.0470947287977
0.1956,0.00939935271163,-0.0470947287977
0.1958,0.232633979613,-0.0470947287977
0.196,0.307828801306,-0.0470947287977
0.1962,0.345426212152,-0.0470947287977
0.1964,0.345426212152,-0.0470947287977
0.1966,0.420621033845,-0.0470947287977
0.1968,0.608608088078,-0.0470947287977
0.197,0.681453071593,-0.0470947287977
0.1972,0.719050482439,-0.0470947287977
0.1974,0.756647893286,-0.0470947287977
0.1976,0.869440125825,-0.0470947287977
0.1978,1.01982976921,-0.0470947287977
0.198,1.13262200175,-0.0470947287977
0.1982,1.16786957442,-0.0470947287977
0.1984,1.13262200175,-0.0470947287977
0.1986,1.0950245909,-0.0470947287977
0.1988,1.0950245909,-0.0470947287977
0.199,1.13262200175,-0.0470947287977
0.1992,1.20546698527,-0.0470947287977
0.1994,1.28066180696,-0.0470947287977
0.1996,1.28066180696,-0.0470947287977
0.1998,1.20546698527,-0.0470947287977
0.2,1.20546698527,-0.0470947287977
0.2002,1.28066180696,-0.0470947287977
0.2004,1.31825921781,-0.0470947287977
0.2006,1.28066180696,-0.0470947287977
0.2008,1.24306439611,-0.0470947287977
0.201,1.24306439611,-0.0470947287977
0.2012,1.31825921781,-0.0470947287977
0.2014,1.43105145034,-0.0470947287977
0.2016,1.50624627204,-0.0470947287977
0.2018,1.54384368288,-0.0470947287977
0.202,1.50624627204,-0.0470947287977
0.2022,1.54384368288,-0.0470947287977
0.2024,1.54384368288,-0.0470947287977
0.2026,1.58144109373,-0.0470947287977
0.2028,1.69188348809,-0.0470947287977
0.203,1.72948089894,-0.0470947287977
0.2032,1.69188348809,-0.0470947287977
0.2034,1.69188348809,-0.0470947287977
0.2036,1.72948089894,-0.0470947287977
0.2038,1.80467572063,-0.0470947287977
0.204,1.76707830979,-0.0470947287977
0.2042,1.65428607725,-0.0470947287977
0.2044,1.54384368288,-0.0470947287977
0.2046,1.46864886119,-0.0470947287977
0.2048,1.46864886119,-0.0470947287977
0.205,1.46864886119,-0.0470947287977
0.2052,1.43105145034,-0.0470947287977
0.2054,1.3934540395,-0.0470947287977
0.2056,1.28066180696,-0.0470947287977
0.2058,1.16786957442,-0.0470947287977
0.206,1.0950245909,-0.0470947287977
0.2062,1.01982976921,-0.0470947287977
0.2064,0.982232358365,-0.0470947287977
0.2066,0.907037536672,-0.0470947287977
0.2068,0.794245304132,-0.0470947287977
0.207,0.794245304132,-0.0470947287977
0.2072,0.831842714979,-0.0470947287977
0.2074,0.869440125825,-0.0470947287977
0.2076,0.756647893286,-0.0470947287977
0.2078,0.646205498924,-0.0470947287977
0.208,0.533413266385,-0.0470947287977
0.2082,0.495815855538,-0.0470947287977
0.2084,0.533413266385,-0.0470947287977
0.2086,0.533413266385,-0.0470947287977
0.2088,0.458218444692,-0.0470947287977
0.209,0.420621033845,-0.0470947287977
0.2092,0.307828801306,-0.0470947287977
0.2094,0.232633979613,-0.0470947287977
0.2096,0.122191585251,-0.0470947287977
0.2098,0.0845941744046,-0.0470947287977
0.21,-0.0281980581349,-0.0470947287977
0.2102,-0.178587701521,-0.0470947287977
0.2104,-0.29137993406,-0.0470947287977
0.2106,-0.328977344907,-0.0470947287977
0.2108,-0.328977344907,-0.0470947287977
0.211,-0.328977344907,-0.0470947287977
0.2112,-0.514614560961,-0.0470947287977
0.2114,-0.627406793501,-0.0470947287977
0.2116,-0.777796436887,-0.0470947287977
0.2118,-0.815393847734,-0.0470947287977
0.212,-0.888238831249,-0.0470947287977
0.2122,-0.925836242095,-0.0470947287977
0.2124,-0.963433652942,-0.0470947287977
0.2126,-1.00103106379,-0.0470947287977
0.2128,-1.03862847463,-0.0470947287977
0.213,-1.00103106379,-0.0470947287977
0.2132,-1.00103106379,-0.0470947287977
0.2134,-1.00103106379,-0.0470947287977
0.2136,-1.11382329633,-0.0470947287977
0.2138,-1.22661552887,-0.0470947287977
0.214,-1.22661552887,-0.0470947287977
0.2142,-1.18901811802,-0.0470947287977
0.2144,-1.11382329633,-0.0470947287977
0.2146,-1.07622588548,-0.0470947287977
0.2148,-1.15142070717,-0.0470947287977
0.215,-1.18901811802,-0.0470947287977
0.2152,-1.22661552887,-0.0470947287977
0.2154,-1.22661552887,-0.0470947287977
0.2156,-1.26421293971,-0.0470947287977
0.2158,-1.26421293971,-0.0470947287977
0.216,-1.33705792323,-0.0470947287977
0.2162,-1.37465533408,-0.0470947287977
0.2164,-1.33705792323,-0.0470947287977
0.2166,-1.30181035056,-0.0470947287977
0.2168,-1.26421293971,-0.0470947287977
0.217,-1.26421293971,-0.0470947287977
0.2172,-1.37465533408,-0.0470947287977
0.2174,-1.44985015577,-0.0470947287977
0.2176,-1.41225274492,-0.0470947287977
0.2178,-1.33705792323,-0.0470947287977
0.218,-1.30181035056,-0.0470947287977
0.2182,-1.26421293971,-0.0470947287977
0.2184,-1.22661552887,-0.0470947287977
0.2186,-1.22661552887,-0.0470947287977
0.2188,-1.22661552887,-0.0470947287977
0.219,-1.11382329633,-0.0470947287977
0.2192,-1.03862847463,-0.0470947287977
0.2194,-1.03862847463,-0.0470947287977
0.2196,-1.00103106379,-0.0470947287977
0.2198,-0.963433652942,-0.0470947287977
0.22,-0.850641420402,-0.0470947287977
0.2202,-0.740199026041,-0.0470947287977
0.2204,-0.665004204347,-0.0470947287977
0.2206,-0.702601615194,-0.0470947287977
0.2208,-0.777796436887,-0.0470947287977
0.221,-0.777796436887,-0.0470947287977
0.2212,-0.665004204347,-0.0470947287977
0.2214,-0.589809382654,-0.0470947287977
0.2216,-0.552211971808,-0.0470947287977
0.2218,-0.552211971808,-0.0470947287977
0.222,-0.552211971808,-0.0470947287977
0.2222,-0.552211971808,-0.0470947287977
0.2224,-0.514614560961,-0.0470947287977
0.2226,-0.477017150115,-0.0470947287977
0.2228,-0.477017150115,-0.0470947287977
0.223,-0.514614560961,-0.0470947287977
0.2232,-0.477017150115,-0.0470947287977
0.2234,-0.401822328422,-0.0470947287977
0.2236,-0.216185112367,-0.0470947287977
0.2238,-0.103392879828,-0.0470947287977
0.224,-0.0281980581349,-0.0470947287977
0.2242,-0.0281980581349,-0.0470947287977
0.2244,-0.0281980581349,-0.0470947287977
0.2246,0.0469967635581,-0.0470947287977
0.2248,0.122191585251,-0.0470947287977
0.225,0.195036568766,-0.0470947287977
0.2252,0.270231390459,-0.0470947287977
0.2254,0.307828801306,-0.0470947287977
0.2256,0.420621033845,-0.0470947287977
0.2258,0.495815855538,-0.0470947287977
0.226,0.571010677231,-0.0470947287977
0.2262,0.646205498924,-0.0470947287977
0.2264,0.571010677231,-0.0470947287977
0.2266,0.495815855538,-0.0470947287977
0.2268,0.495815855538,-0.0470947287977
0.227,0.533413266385,-0.0470947287977
0.2272,0.608608088078,-0.0470947287977
0.2274,0.681453071593,-0.0470947287977
0.2276,0.681453071593,-0.0470947287977
0.2278,0.681453071593,-0.0470947287977
0.228,0.681453071593,-0.0470947287977
0.2282,0.756647893286,-0.0470947287977
0.2284,0.794245304132,-0.0470947287977
0.2286,0.794245304132,-0.0470947287977
0.2288,0.794245304132,-0.0470947287977
0.229,0.831842714979,-0.0470947287977
0.2292,0.869440125825,-0.0470947287977
0.2294,0.982232358365,-0.0470947287977
0.2296,1.16786957442,-0.0470947287977
0.2298,1.16786957442,-0.0470947287977
0.23,1.16786957442,-0.0470947287977
0.2302,1.13262200175,-0.0470947287977
0.2304,1.0950245909,-0.0470947287977
0.2306,1.16786957442,-0.0470947287977
0.2308,1.24306439611,-0.0470947287977
0.231,1.28066180696,-0.0470947287977
0.2312,1.24306439611,-0.0470947287977
0.2314,1.24306439611,-0.0470947287977
0.2316,1.31825921781,-0.0470947287977
0.2318,1.35585662865,-0.0470947287977
0.232,1.28066180696,-0.0470947287977
0.2322,1.20546698527,-0.0470947287977
0.2324,1.13262200175,-0.0470947287977
0.2326,1.01982976921,-0.0470947287977
0.2328,0.982232358365,-0.0470947287977
0.233,1.01982976921,-0.0470947287977
0.2332,1.05742718006,-0.0470947287977
0.2334,1.01982976921,-0.0470947287977
0.2336,0.944634947518,-0.0470947287977
0.2338,0.831842714979,-0.0470947287977
0.234,0.794245304132,-0.0470947287977
0.2342,0.794245304132,-0.0470947287977
0.2344,0.756647893286,-0.0470947287977
0.2346,0.681453071593,-0.0470947287977
0.2348,0.681453071593,-0.0470947287977
0.235,0.681453071593,-0.0470947287977
0.2352,0.719050482439,-0.0470947287977
0.2354,0.756647893286,-0.0470947287977
0.2356,0.719050482439,-0.0470947287977
0.2358,0.646205498924,-0.0470947287977
0.236,0.571010677231,-0.0470947287977
0.2362,0.495815855538,-0.0470947287977
0.2364,0.495815855538,-0.0470947287977
0.2366,0.533413266385,-0.0470947287977
0.2368,0.495815855538,-0.0470947287977
0.237,0.420621033845,-0.0470947287977
0.2372,0.307828801306,-0.0470947287977
0.2374,0.270231390459,-0.0470947287977
0.2376,0.232633979613,-0.0470947287977
0.2378,0.195036568766,-0.0470947287977
0.238,0.0845941744046,-0.0470947287977
0.2382,-0.0657954689814,-0.0470947287977
0.2384,-0.178587701521,-0.0470947287977
0.2386,-0.178587701521,-0.0470947287977
0.2388,-0.178587701521,-0.0470947287977
0.239,-0.178587701521,-0.0470947287977
0.2392,-0.29137993406,-0.0470947287977
0.2394,-0.401822328422,-0.0470947287977
0.2396,-0.514614560961,-0.0470947287977
0.2398,-0.589809382654,-0.0470947287977
0.24,-0.552211971808,-0.0470947287977
0.2402,-0.514614560961,-0.0470947287977
0.2404,-0.589809382654,-0.0470947287977
0.2406,-0.627406793501,-0.0470947287977
0.2408,-0.627406793501,-0.0470947287977
0.241,-0.627406793501,-0.0470947287977
0.2412,-0.552211971808,-0.0470947287977
0.2414,-0.589809382654,-0.0470947287977
0.2416,-0.627406793501,-0.0470947287977
0.2418,-0.740199026041,-0.0470947287977
0.242,-0.777796436887,-0.0470947287977
0.2422,-0.740199026041,-0.0470947287977
0.2424,-0.665004204347,-0.0470947287977
0.2426,-0.665004204347,-0.0470947287977
0.2428,-0.702601615194,-0.0470947287977
0.243,-0.777796436887,-0.0470947287977
0.2432,-0.888238831249,-0.0470947287977
0.2434,-0.925836242095,-0.0470947287977
0.2436,-0.925836242095,-0.0470947287977
0.2438,-0.925836242095,-0.0470947287977
0.244,-0.963433652942,-0.0470947287977
0.2442,-1.07622588548,-0.0470947287977
0.2444,-1.03862847463,-0.0470947287977
0.2446,-0.963433652942,-0.0470947287977
0.2448,-0.925836242095,-0.0470947287977
0.245,-0.963433652942,-0.0470947287977
0.2452,-1.03862847463,-0.0470947287977
0.2454,-1.07622588548,-0.0470947287977
0.2456,-1.03862847463,-0.0470947287977
0.2458,-0.963433652942,-0.0470947287977
0.246,-0.888238831249,-0.0470947287977
0.2462,-0.815393847734,-0.0470947287977
0.2464,-0.815393847734,-0.0470947287977
0.2466,-0.777796436887,-0.0470947287977
0.2468,-0.777796436887,-0.0470947287977
0.247,-0.702601615194,-0.0470947287977
0.2472,-0.627406793501,-0.0470947287977
0.2474,-0.627406793501,-0.0470947287977
0.2476,-0.665004204347,-0.0470947287977
0.2478,-0.665004204347,-0.0470947287977
0.248,-0.589809382654,-0.0470947287977
0.2482,-0.514614560961,-0.0470947287977
0.2484,-0.439419739268,-0.0470947287977
0.2486,-0.514614560961,-0.0470947287977
0.2488,-0.589809382654,-0.0470947287977
0.249,-0.589809382654,-0.0470947287977
0.2492,-0.552211971808,-0.0470947287977
0.2494,-0.514614560961,-0.0470947287977
0.2496,-0.477017150115,-0.0470947287977
0.2498,-0.439419739268,-0.0470947287977
0.25,-0.439419739268,-0.0470947287977
0.2502,-0.439419739268,-0.0470947287977
0.2504,-0.364224917575,-0.0470947287977
0.2506,-0.29137993406,-0.0470947287977
0.2508,-0.253782523214,-0.0470947287977
0.251,-0.29137993406,-0.0470947287977
0.2512,-0.328977344907,-0.0470947287977
0.2514,-0.216185112367,-0.0470947287977
0.2516,-0.0657954689814,-0.0470947287977
0.2518,0.0845941744046,-0.0470947287977
0.252,0.122191585251,-0.0470947287977
0.2522,0.0845941744046,-0.0470947287977
0.2524,0.122191585251,-0.0470947287977
0.2526,0.15743915792,-0.0470947287977
0.2528,0.195036568766,-0.0470947287977
0.253,0.270231390459,-0.0470947287977
0.2532,0.345426212152,-0.0470947287977
0.2534,0.383023622999,-0.0470947287977
0.2536,0.383023622999,-0.0470947287977
0.2538,0.458218444692,-0.0470947287977
0.254,0.533413266385,-0.0470947287977
0.2542,0.608608088078,-0.0470947287977
0.2544,0.571010677231,-0.0470947287977
0.2546,0.495815855538,-0.0470947287977
0.2548,0.495815855538,-0.0470947287977
0.255,0.533413266385,-0.0470947287977
0.2552,0.608608088078,-0.0470947287977
0.2554,0.681453071593,-0.0470947287977
0.2556,0.681453071593,-0.0470947287977
0.2558,0.608608088078,-0.0470947287977
0.256,0.646205498924,-0.0470947287977
0.2562,0.681453071593,-0.0470947287977
0.2564,0.719050482439,-0.0470947287977
0.2566,0.794245304132,-0.0470947287977
0.2568,0.794245304132,-0.0470947287977
0.257,0.794245304132,-0.0470947287977
0.2572,0.831842714979,-0.0470947287977
0.2574,0.982232358365,-0.0470947287977
0.2576,1.13262200175,-0.0470947287977
0.2578,1.16786957442,-0.0470947287977
0.258,1.13262200175,-0.0470947287977
0.2582,1.0950245909,-0.0470947287977
0.2584,1.0950245909,-0.0470947287977
0.2586,1.16786957442,-0.0470947287977
0.2588,1.16786957442,-0.0470947287977
0.259,1.20546698527,-0.0470947287977
0.2592,1.16786957442,-0.0470947287977
0.2594,1.16786957442,-0.0470947287977
0.2596,1.16786957442,-0.0470947287977
0.2598,1.16786957442,-0.0470947287977
0.26,1.13262200175,-0.0470947287977
0.2602,1.01982976921,-0.0470947287977
0.2604,0.907037536672,-0.0470947287977
0.2606,0.831842714979,-0.0470947287977
0.2608,0.794245304132,-0.0470947287977
0.261,0.869440125825,-0.0470947287977
0.2612,0.869440125825,-0.0470947287977
0.2614,0.831842714979,-0.0470947287977
0.2616,0.719050482439,-0.0470947287977
0.2618,0.646205498924,-0.0470947287977
0.262,0.608608088078,-0.0470947287977
0.2622,0.681453071593,-0.0470947287977
0.2624,0.608608088078,-0.0470947287977
0.2626,0.571010677231,-0.0470947287977
0.2628,0.533413266385,-0.0470947287977
0.263,0.533413266385,-0.0470947287977
0.2632,0.571010677231,-0.0470947287977
0.2634,0.571010677231,-0.0470947287977
0.2636,0.571010677231,-0.0470947287977
0.2638,0.458218444692,-0.0470947287977
0.264,0.345426212152,-0.0470947287977
0.2642,0.270231390459,-0.0470947287977
0.2644,0.232633979613,-0.0470947287977
0.2646,0.232633979613,-0.0470947287977
0.2648,0.195036568766,-0.0470947287977
0.265,0.122191585251,-0.0470947287977
0.2652,-0.0281980581349,-0.0470947287977
0.2654,-0.0657954689814,-0.0470947287977
0.2656,-0.178587701521,-0.0470947287977
0.2658,-0.178587701521,-0.0470947287977
0.266,-0.328977344907,-0.0470947287977
0.2662,-0.477017150115,-0.0470947287977
0.2664,-0.589809382654,-0.0470947287977
0.2666,-0.627406793501,-0.0470947287977
0.2668,-0.627406793501,-0.0470947287977
0.267,-0.627406793501,-0.0470947287977
0.2672,-0.665004204347,-0.0470947287977
0.2674,-0.777796436887,-0.0470947287977
0.2676,-0.925836242095,-0.0470947287977
0.2678,-0.963433652942,-0.0470947287977
0.268,-0.963433652942,-0.0470947287977
0.2682,-0.925836242095,-0.0470947287977
0.2684,-0.963433652942,-0.0470947287977
0.2686,-1.00103106379,-0.0470947287977
0.2688,-1.00103106379,-0.0470947287977
0.269,-1.00103106379,-0.0470947287977
0.2692,-0.963433652942,-0.0470947287977
0.2694,-1.00103106379,-0.0470947287977
0.2696,-1.11382329633,-0.0470947287977
0.2698,-1.18901811802,-0.0470947287977
0.27,-1.22661552887,-0.0470947287977
0.2702,-1.18901811802,-0.0470947287977
0.2704,-1.15142070717,-0.0470947287977
0.2706,-1.11382329633,-0.0470947287977
0.2708,-1.18901811802,-0.0470947287977
0.271,-1.26421293971,-0.0470947287977
0.2712,-1.37465533408,-0.0470947287977
0.2714,-1.37465533408,-0.0470947287977
0.2716,-1.37465533408,-0.0470947287977
0.2718,-1.37465533408,-0.0470947287977
0.272,-1.44985015577,-0.0470947287977
0.2722,-1.44985015577,-0.0470947287977
0.2724,-1.44985015577,-0.0470947287977
0.2726,-1.37465533408,-0.0470947287977
0.2728,-1.30181035056,-0.0470947287977
0.273,-1.30181035056,-0.0470947287977
0.2732,-1.37465533408,-0.0470947287977
0.2734,-1.37465533408,-0.0470947287977
0.2736,-1.33705792323,-0.0470947287977
0.2738,-1.26421293971,-0.0470947287977
0.274,-1.11382329633,-0.0470947287977
0.2742,-1.03862847463,-0.0470947287977
0.2744,-1.00103106379,-0.0470947287977
0.2746,-0.963433652942,-0.0470947287977
0.2748,-0.925836242095,-0.0470947287977
0.275,-0.815393847734,-0.0470947287977
0.2752,-0.777796436887,-0.0470947287977
0.2754,-0.777796436887,-0.0470947287977
0.2756,-0.777796436887,-0.0470947287977
0.2758,-0.777796436887,-0.0470947287977
0.276,-0.702601615194,-0.0470947287977
0.2762,-0.589809382654,-0.0470947287977
0.2764,-0.514614560961,-0.0470947287977
0.2766,-0.477017150115,-0.0470947287977
0.2768,-0.514614560961,-0.0470947287977
0.277,-0.552211971808,-0.0470947287977
0.2772,-0.514614560961,-0.0470947287977
0.2774,-0.439419739268,-0.0470947287977
0.2776,-0.364224917575,-0.0470947287977
0.2778,-0.328977344907,-0.0470947287977
0.278,-0.328977344907,-0.0470947287977
0.2782,-0.29137993406,-0.0470947287977
0.2784,-0.140990290674,-0.0470947287977
0.2786,-0.0281980581349,-0.0470947287977
0.2788,0.00939935271163,-0.0470947287977
0.279,0.00939935271163,-0.0470947287977
0.2792,0.00939935271163,-0.0470947287977
0.2794,0.0845941744046,-0.0470947287977
0.2796,0.232633979613,-0.0470947287977
0.2798,0.383023622999,-0.0470947287977
0.28,0.533413266385,-0.0470947287977
0.2802,0.571010677231,-0.0470947287977
0.2804,0.571010677231,-0.0470947287977
0.2806,0.608608088078,-0.0470947287977
0.2808,0.681453071593,-0.0470947287977
0.281,0.756647893286,-0.0470947287977
0.2812,0.794245304132,-0.0470947287977
0.2814,0.831842714979,-0.0470947287977
0.2816,0.831842714979,-0.0470947287977
0.2818,0.907037536672,-0.0470947287977
0.282,1.01982976921,-0.0470947287977
0.2822,1.0950245909,-0.0470947287977
0.2824,1.05742718006,-0.0470947287977
0.2826,1.01982976921,-0.0470947287977
0.2828,1.01982976921,-0.0470947287977
0.283,1.01982976921,-0.0470947287977
0.2832,1.16786957442,-0.0470947287977
0.2834,1.20546698527,-0.0470947287977
0.2836,1.28066180696,-0.0470947287977
0.2838,1.28066180696,-0.0470947287977
0.284,1.31825921781,-0.0470947287977
0.2842,1.35585662865,-0.0470947287977
0.2844,1.43105145034,-0.0470947287977
0.2846,1.46864886119,-0.0470947287977
0.2848,1.46864886119,-0.0470947287977
0.285,1.46864886119,-0.0470947287977
0.2852,1.50624627204,-0.0470947287977
0.2854,1.61903850458,-0.0470947287977
0.2856,1.72948089894,-0.0470947287977
0.2858,1.76707830979,-0.0470947287977
0.286,1.76707830979,-0.0470947287977
0.2862,1.76707830979,-0.0470947287977
0.2864,1.72948089894,-0.0470947287977
0.2866,1.72948089894,-0.0470947287977
0.2868,1.76707830979,-0.0470947287977
0.287,1.76707830979,-0.0470947287977
0.2872,1.76707830979,-0.0470947287977
0.2874,1.69188348809,-0.0470947287977
0.2876,1.69188348809,-0.0470947287977
0.2878,1.69188348809,-0.0470947287977
0.288,1.72948089894,-0.0470947287977
0.2882,1.65428607725,-0.0470947287977
0.2884,1.58144109373,-0.0470947287977
0.2886,1.46864886119,-0.0470947287977
0.2888,1.43105145034,-0.0470947287977
0.289,1.46864886119,-0.0470947287977
0.2892,1.54384368288,-0.0470947287977
0.2894,1.46864886119,-0.0470947287977
0.2896,1.3934540395,-0.0470947287977
0.2898,1.31825921781,-0.0470947287977
0.29,1.28066180696,-0.0470947287977
0.2902,1.28066180696,-0.0470947287977
0.2904,1.24306439611,-0.0470947287977
0.2906,1.16786957442,-0.0470947287977
0.2908,1.0950245909,-0.0470947287977
0.291,1.01982976921,-0.0470947287977
0.2912,1.01982976921,-0.0470947287977
0.2914,1.01982976921,-0.0470947287977
0.2916,0.982232358365,-0.0470947287977
0.2918,0.869440125825,-0.0470947287977
0.292,0.719050482439,-0.0470947287977
0.2922,0.608608088078,-0.0470947287977
0.2924,0.571010677231,-0.0470947287977
0.2926,0.533413266385,-0.0470947287977
0.2928,0.458218444692,-0.0470947287977
0.293,0.345426212152,-0.0470947287977
0.2932,0.232633979613,-0.0470947287977
0.2934,0.122191585251,-0.0470947287977
0.2936,0.00939935271163,-0.0470947287977
0.2938,-0.0281980581349,-0.0470947287977
0.294,-0.140990290674,-0.0470947287977
0.2942,-0.253782523214,-0.0470947287977
0.2944,-0.401822328422,-0.0470947287977
0.2946,-0.514614560961,-0.0470947287977
0.2948,-0.552211971808,-0.0470947287977
0.295,-0.589809382654,-0.0470947287977
0.2952,-0.665004204347,-0.0470947287977
0.2954,-0.815393847734,-0.0470947287977
0.2956,-0.963433652942,-0.0470947287977
0.2958,-1.07622588548,-0.0470947287977
0.296,-1.11382329633,-0.0470947287977
0.2962,-1.11382329633,-0.0470947287977
0.2964,-1.18901811802,-0.0470947287977
0.2966,-1.22661552887,-0.0470947287977
0.2968,-1.33705792323,-0.0470947287977
0.297,-1.37465533408,-0.0470947287977
0.2972,-1.41225274492,-0.0470947287977
0.2974,-1.44985015577,-0.0470947287977
0.2976,-1.52504497746,-0.0470947287977
0.2978,-1.67543462085,-0.0470947287977
0.298,-1.78822685339,-0.0470947287977
0.2982,-1.78822685339,-0.0470947287977
0.2984,-1.75062944254,-0.0470947287977
0.2986,-1.75062944254,-0.0470947287977
0.2988,-1.8610718369,-0.0470947287977
0.299,-1.97386406944,-0.0470947287977
0.2992,-2.01146148029,-0.0470947287977
0.2994,-2.08665630198,-0.0470947287977
0.2996,-2.08665630198,-0.0470947287977
0.2998,-2.12425371283,-0.0470947287977
0.3,-2.16185112367,-0.0470947287977
0.3002,-2.16185112367,-0.0470947287977
0.3004,-2.19944853452,-0.0470947287977
0.3006,-2.19944853452,-0.0470947287977
0.3008,-2.16185112367,-0.0470947287977
0.301,-2.16185112367,-0.0470947287977
0.3012,-2.23704594537,-0.0470947287977
0.3014,-2.30989092888,-0.0470947287977
0.3016,-2.30989092888,-0.0470947287977
0.3018,-2.27464335621,-0.0470947287977
0.302,-2.16185112367,-0.0470947287977
0.3022,-2.12425371283,-0.0470947287977
0.3024,-2.08665630198,-0.0470947287977
0.3026,-2.12425371283,-0.0470947287977
0.3028,-2.08665630198,-0.0470947287977
0.303,-1.97386406944,-0.0470947287977
0.3032,-1.97386406944,-0.0470947287977
0.3034,-1.97386406944,-0.0470947287977
0.3036,-1.97386406944,-0.0470947287977
0.3038,-1.89866924775,-0.0470947287977
0.304,-1.78822685339,-0.0470947287977
0.3042,-1.71303203169,-0.0470947287977
0.3044,-1.56264238831,-0.0470947287977
0.3046,-1.52504497746,-0.0470947287977
0.3048,-1.52504497746,-0.0470947287977
0.305,-1.56264238831,-0.0470947287977
0.3052,-1.48744756661,-0.0470947287977
0.3054,-1.37465533408,-0.0470947287977
0.3056,-1.26421293971,-0.0470947287977
0.3058,-1.18901811802,-0.0470947287977
0.306,-1.15142070717,-0.0470947287977
0.3062,-1.07622588548,-0.0470947287977
0.3064,-0.963433652942,-0.0470947287977
0.3066,-0.850641420402,-0.0470947287977
0.3068,-0.777796436887,-0.0470947287977
0.307,-0.740199026041,-0.0470947287977
0.3072,-0.702601615194,-0.0470947287977
0.3074,-0.627406793501,-0.0470947287977
0.3076,-0.477017150115,-0.0470947287977
0.3078,-0.328977344907,-0.0470947287977
0.308,-0.178587701521,-0.0470947287977
0.3082,-0.103392879828,-0.0470947287977
0.3084,-0.0657954689814,-0.0470947287977
0.3086,0.00939935271163,-0.0470947287977
0.3088,0.122191585251,-0.0470947287977
0.309,0.232633979613,-0.0470947287977
0.3092,0.307828801306,-0.0470947287977
0.3094,0.420621033845,-0.0470947287977
0.3096,0.495815855538,-0.0470947287977
0.3098,0.571010677231,-0.0470947287977
0.31,0.719050482439,-0.0470947287977
0.3102,0.831842714979,-0.0470947287977
0.3104,0.907037536672,-0.0470947287977
0.3106,0.907037536672,-0.0470947287977
0.3108,0.944634947518,-0.0470947287977
0.311,1.01982976921,-0.0470947287977
0.3112,1.16786957442,-0.0470947287977
0.3114,1.31825921781,-0.0470947287977
0.3116,1.3934540395,-0.0470947287977
0.3118,1.3934540395,-0.0470947287977
0.312,1.46864886119,-0.0470947287977
0.3122,1.54384368288,-0.0470947287977
0.3124,1.61903850458,-0.0470947287977
0.3126,1.72948089894,-0.0470947287977
0.3128,1.76707830979,-0.0470947287977
0.313,1.76707830979,-0.0470947287977
0.3132,1.87987054233,-0.0470947287977
0.3134,1.99266277486,-0.0470947287977
0.3136,2.1054550074,-0.0470947287977
0.3138,2.21589740177,-0.0470947287977
0.314,2.21589740177,-0.0470947287977
0.3142,2.21589740177,-0.0470947287977
0.3144,2.21589740177,-0.0470947287977
0.3146,2.36628704515,-0.0470947287977
0.3148,2.47907927769,-0.0470947287977
0.315,2.51667668854,-0.0470947287977
0.3152,2.55427409938,-0.0470947287977
0.3154,2.51667668854,-0.0470947287977
0.3156,2.51667668854,-0.0470947287977
0.3158,2.59187151023,-0.0470947287977
0.316,2.6271190829,-0.0470947287977
0.3162,2.59187151023,-0.0470947287977
0.3164,2.51667668854,-0.0470947287977
0.3166,2.47907927769,-0.0470947287977
0.3168,2.51667668854,-0.0470947287977
0.317,2.59187151023,-0.0470947287977
0.3172,2.6271190829,-0.0470947287977
0.3174,2.6271190829,-0.0470947287977
0.3176,2.59187151023,-0.0470947287977
0.3178,2.47907927769,-0.0470947287977
0.318,2.44148186684,-0.0470947287977
0.3182,2.403884456,-0.0470947287977
0.3184,2.403884456,-0.0470947287977
0.3186,2.36628704515,-0.0470947287977
0.3188,2.21589740177,-0.0470947287977
0.319,2.14070258007,-0.0470947287977
0.3192,2.14070258007,-0.0470947287977
0.3194,2.14070258007,-0.0470947287977
0.3196,2.14070258007,-0.0470947287977
0.3198,2.03026018571,-0.0470947287977
0.32,1.87987054233,-0.0470947287977
0.3202,1.76707830979,-0.0470947287977
0.3204,1.69188348809,-0.0470947287977
0.3206,1.65428607725,-0.0470947287977
0.3208,1.61903850458,-0.0470947287977
0.321,1.58144109373,-0.0470947287977
0.3212,1.46864886119,-0.0470947287977
0.3214,1.31825921781,-0.0470947287977
0.3216,1.28066180696,-0.0470947287977
0.3218,1.20546698527,-0.0470947287977
0.322,1.13262200175,-0.0470947287977
0.3222,0.982232358365,-0.0470947287977
0.3224,0.794245304132,-0.0470947287977
0.3226,0.719050482439,-0.0470947287977
0.3228,0.646205498924,-0.0470947287977
0.323,0.646205498924,-0.0470947287977
0.3232,0.533413266385,-0.0470947287977
0.3234,0.420621033845,-0.0470947287977
0.3236,0.270231390459,-0.0470947287977
0.3238,0.0845941744046,-0.0470947287977
0.324,-0.0281980581349,-0.0470947287977
0.3242,-0.103392879828,-0.0470947287977
0.3244,-0.216185112367,-0.0470947287977
0.3246,-0.328977344907,-0.0470947287977
0.3248,-0.477017150115,-0.0470947287977
0.325,-0.589809382654,-0.0470947287977
0.3252,-0.627406793501,-0.0470947287977
0.3254,-0.702601615194,-0.0470947287977
0.3256,-0.815393847734,-0.0470947287977
0.3258,-0.963433652942,-0.0470947287977
0.326,-1.11382329633,-0.0470947287977
0.3262,-1.22661552887,-0.0470947287977
0.3264,-1.22661552887,-0.0470947287977
0.3266,-1.26421293971,-0.0470947287977
0.3268,-1.37465533408,-0.0470947287977
0.327,-1.48744756661,-0.0470947287977
0.3272,-1.60023979915,-0.0470947287977
0.3274,-1.71303203169,-0.0470947287977
0.3276,-1.75062944254,-0.0470947287977
0.3278,-1.82347442606,-0.0470947287977
0.328,-1.89866924775,-0.0470947287977
0.3282,-2.01146148029,-0.0470947287977
0.3284,-2.12425371283,-0.0470947287977
0.3286,-2.16185112367,-0.0470947287977
0.3288,-2.19944853452,-0.0470947287977
0.329,-2.23704594537,-0.0470947287977
0.3292,-2.34748833973,-0.0470947287977
0.3294,-2.53547539396,-0.0470947287977
0.3296,-2.57307280481,-0.0470947287977
0.3298,-2.57307280481,-0.0470947287977
0.33,-2.57307280481,-0.0470947287977
0.3302,-2.57307280481,-0.0470947287977
0.3304,-2.61067021565,-0.0470947287977
0.3306,-2.68586503735,-0.0470947287977
0.3308,-2.72346244819,-0.0470947287977
0.331,-2.72346244819,-0.0470947287977
0.3312,-2.72346244819,-0.0470947287977
0.3314,-2.72346244819,-0.0470947287977
0.3316,-2.72346244819,-0.0470947287977
0.3318,-2.76105985904,-0.0470947287977
0.332,-2.72346244819,-0.0470947287977
0.3322,-2.68586503735,-0.0470947287977
0.3324,-2.61067021565,-0.0470947287977
0.3326,-2.61067021565,-0.0470947287977
0.3328,-2.6482676265,-0.0470947287977
0.333,-2.68586503735,-0.0470947287977
0.3332,-2.6482676265,-0.0470947287977
0.3334,-2.57307280481,-0.0470947287977
0.3336,-2.53547539396,-0.0470947287977
0.3338,-2.49787798311,-0.0470947287977
0.334,-2.42268316142,-0.0470947287977
0.3342,-2.38508575057,-0.0470947287977
0.3344,-2.34748833973,-0.0470947287977
0.3346,-2.27464335621,-0.0470947287977
0.3348,-2.19944853452,-0.0470947287977
0.335,-2.16185112367,-0.0470947287977
0.3352,-2.16185112367,-0.0470947287977
0.3354,-2.08665630198,-0.0470947287977
0.3356,-1.97386406944,-0.0470947287977
0.3358,-1.82347442606,-0.0470947287977
0.336,-1.71303203169,-0.0470947287977
0.3362,-1.67543462085,-0.0470947287977
0.3364,-1.60023979915,-0.0470947287977
0.3366,-1.52504497746,-0.0470947287977
0.3368,-1.44985015577,-0.0470947287977
0.337,-1.30181035056,-0.0470947287977
0.3372,-1.22661552887,-0.0470947287977
0.3374,-1.11382329633,-0.0470947287977
0.3376,-1.00103106379,-0.0470947287977
0.3378,-0.925836242095,-0.0470947287977
0.338,-0.777796436887,-0.0470947287977
0.3382,-0.627406793501,-0.0470947287977
0.3384,-0.552211971808,-0.0470947287977
0.3386,-0.514614560961,-0.0470947287977
0.3388,-0.439419739268,-0.0470947287977
0.339,-0.328977344907,-0.0470947287977
0.3392,-0.216185112367,-0.0470947287977
0.3394,-0.0281980581349,-0.0470947287977
0.3396,0.0845941744046,-0.0470947287977
0.3398,0.15743915792,-0.0470947287977
0.34,0.232633979613,-0.0470947287977
0.3402,0.307828801306,-0.0470947287977
0.3404,0.420621033845,-0.0470947287977
0.3406,0.533413266385,-0.0470947287977
0.3408,0.646205498924,-0.0470947287977
0.341,0.719050482439,-0.0470947287977
0.3412,0.831842714979,-0.0470947287977
0.3414,0.944634947518,-0.0470947287977
0.3416,1.13262200175,-0.0470947287977
0.3418,1.28066180696,-0.0470947287977
0.342,1.31825921781,-0.0470947287977
0.3422,1.3934540395,-0.0470947287977
0.3424,1.43105145034,-0.0470947287977
0.3426,1.58144109373,-0.0470947287977
0.3428,1.69188348809,-0.0470947287977
0.343,1.80467572063,-0.0470947287977
0.3432,1.87987054233,-0.0470947287977
0.3434,1.99266277486,-0.0470947287977
0.3436,2.06785759656,-0.0470947287977
0.3438,2.14070258007,-0.0470947287977
0.344,2.21589740177,-0.0470947287977
0.3442,2.36628704515,-0.0470947287977
0.3444,2.403884456,-0.0470947287977
0.3446,2.36628704515,-0.0470947287977
0.3448,2.44148186684,-0.0470947287977
0.345,2.51667668854,-0.0470947287977
0.3452,2.6271190829,-0.0470947287977
0.3454,2.70231390459,-0.0470947287977
0.3456,2.70231390459,-0.0470947287977
0.3458,2.66471649375,-0.0470947287977
0.346,2.70231390459,-0.0470947287977
0.3462,2.70231390459,-0.0470947287977
0.3464,2.77750872629,-0.0470947287977
0.3466,2.77750872629,-0.0470947287977
0.3468,2.77750872629,-0.0470947287977
0.347,2.81510613713,-0.0470947287977
0.3472,2.81510613713,-0.0470947287977
0.3474,2.89030095882,-0.0470947287977
0.3476,2.92789836967,-0.0470947287977
0.3478,2.89030095882,-0.0470947287977
0.348,2.81510613713,-0.0470947287977
0.3482,2.73991131544,-0.0470947287977
0.3484,2.70231390459,-0.0470947287977
0.3486,2.77750872629,-0.0470947287977
0.3488,2.81510613713,-0.0470947287977
0.349,2.81510613713,-0.0470947287977
0.3492,2.70231390459,-0.0470947287977
0.3494,2.6271190829,-0.0470947287977
0.3496,2.59187151023,-0.0470947287977
0.3498,2.55427409938,-0.0470947287977
0.35,2.47907927769,-0.0470947287977
0.3502,2.403884456,-0.0470947287977
0.3504,2.21589740177,-0.0470947287977
0.3506,2.14070258007,-0.0470947287977
0.3508,2.1054550074,-0.0470947287977
0.351,2.06785759656,-0.0470947287977
0.3512,1.99266277486,-0.0470947287977
0.3514,1.87987054233,-0.0470947287977
0.3516,1.76707830979,-0.0470947287977
0.3518,1.61903850458,-0.0470947287977
0.352,1.50624627204,-0.0470947287977
0.3522,1.46864886119,-0.0470947287977
0.3524,1.43105145034,-0.0470947287977
0.3526,1.31825921781,-0.0470947287977
0.3528,1.16786957442,-0.0470947287977
0.353,1.01982976921,-0.0470947287977
0.3532,0.982232358365,-0.0470947287977
0.3534,0.907037536672,-0.0470947287977
0.3536,0.794245304132,-0.0470947287977
0.3538,0.646205498924,-0.0470947287977
0.354,0.533413266385,-0.0470947287977
0.3542,0.458218444692,-0.0470947287977
0.3544,0.420621033845,-0.0470947287977
0.3546,0.345426212152,-0.0470947287977
0.3548,0.232633979613,-0.0470947287977
0.355,0.0845941744046,-0.0470947287977
0.3552,-0.0657954689814,-0.0470947287977
0.3554,-0.216185112367,-0.0470947287977
0.3556,-0.29137993406,-0.0470947287977
0.3558,-0.328977344907,-0.0470947287977
0.356,-0.477017150115,-0.0470947287977
0.3562,-0.589809382654,-0.0470947287977
0.3564,-0.702601615194,-0.0470947287977
0.3566,-0.815393847734,-0.0470947287977
0.3568,-0.925836242095,-0.0470947287977
0.357,-1.03862847463,-0.0470947287977
0.3572,-1.18901811802,-0.0470947287977
0.3574,-1.33705792323,-0.0470947287977
0.3576,-1.41225274492,-0.0470947287977
0.3578,-1.44985015577,-0.0470947287977
0.358,-1.48744756661,-0.0470947287977
0.3582,-1.52504497746,-0.0470947287977
0.3584,-1.60023979915,-0.0470947287977
0.3586,-1.75062944254,-0.0470947287977
0.3588,-1.8610718369,-0.0470947287977
0.359,-1.97386406944,-0.0470947287977
0.3592,-1.97386406944,-0.0470947287977
0.3594,-2.01146148029,-0.0470947287977
0.3596,-2.08665630198,-0.0470947287977
0.3598,-2.16185112367,-0.0470947287977
0.36,-2.19944853452,-0.0470947287977
0.3602,-2.19944853452,-0.0470947287977
0.3604,-2.19944853452,-0.0470947287977
0.3606,-2.27464335621,-0.0470947287977
0.3608,-2.42268316142,-0.0470947287977
0.361,-2.57307280481,-0.0470947287977
0.3612,-2.61067021565,-0.0470947287977
0.3614,-2.68586503735,-0.0470947287977
0.3616,-2.6482676265,-0.0470947287977
0.3618,-2.61067021565,-0.0470947287977
0.362,-2.68586503735,-0.0470947287977
0.3622,-2.72346244819,-0.0470947287977
0.3624,-2.72346244819,-0.0470947287977
0.3626,-2.72346244819,-0.0470947287977
0.3628,-2.72346244819,-0.0470947287977
0.363,-2.76105985904,-0.0470947287977
0.3632,-2.79630743171,-0.0470947287977
0.3634,-2.79630743171,-0.0470947287977
0.3636,-2.72346244819,-0.0470947287977
0.3638,-2.6482676265,-0.0470947287977
0.364,-2.57307280481,-0.0470947287977
0.3642,-2.53547539396,-0.0470947287977
0.3644,-2.53547539396,-0.0470947287977
0.3646,-2.57307280481,-0.0470947287977
0.3648,-2.49787798311,-0.0470947287977
0.365,-2.38508575057,-0.0470947287977
0.3652,-2.30989092888,-0.0470947287977
0.3654,-2.27464335621,-0.0470947287977
0.3656,-2.19944853452,-0.0470947287977
0.3658,-2.16185112367,-0.0470947287977
0.366,-2.08665630198,-0.0470947287977
0.3662,-1.97386406944,-0.0470947287977
0.3664,-1.93626665859,-0.0470947287977
0.3666,-1.97386406944,-0.0470947287977
0.3668,-1.93626665859,-0.0470947287977
0.367,-1.8610718369,-0.0470947287977
0.3672,-1.78822685339,-0.0470947287977
0.3674,-1.67543462085,-0.0470947287977
0.3676,-1.52504497746,-0.0470947287977
0.3678,-1.48744756661,-0.0470947287977
0.368,-1.41225274492,-0.0470947287977
0.3682,-1.33705792323,-0.0470947287977
0.3684,-1.26421293971,-0.0470947287977
0.3686,-1.15142070717,-0.0470947287977
0.3688,-1.07622588548,-0.0470947287977
0.369,-0.963433652942,-0.0470947287977
0.3692,-0.925836242095,-0.0470947287977
0.3694,-0.740199026041,-0.0470947287977
0.3696,-0.552211971808,-0.0470947287977
0.3698,-0.401822328422,-0.0470947287977
0.37,-0.29137993406,-0.0470947287977
0.3702,-0.216185112367,-0.0470947287977
0.3704,-0.178587701521,-0.0470947287977
0.3706,-0.0657954689814,-0.0470947287977
0.3708,0.0845941744046,-0.0470947287977
0.371,0.232633979613,-0.0470947287977
0.3712,0.345426212152,-0.0470947287977
0.3714,0.420621033845,-0.0470947287977
0.3716,0.533413266385,-0.0470947287977
0.3718,0.608608088078,-0.0470947287977
0.372,0.719050482439,-0.0470947287977
0.3722,0.794245304132,-0.0470947287977
0.3724,0.869440125825,-0.0470947287977
0.3726,0.869440125825,-0.0470947287977
0.3728,0.982232358365,-0.0470947287977
0.373,1.0950245909,-0.0470947287977
0.3732,1.24306439611,-0.0470947287977
0.3734,1.35585662865,-0.0470947287977
0.3736,1.43105145034,-0.0470947287977
0.3738,1.46864886119,-0.0470947287977
0.374,1.54384368288,-0.0470947287977
0.3742,1.61903850458,-0.0470947287977
0.3744,1.72948089894,-0.0470947287977
0.3746,1.80467572063,-0.0470947287977
0.3748,1.87987054233,-0.0470947287977
0.375,1.95506536402,-0.0470947287977
0.3752,2.06785759656,-0.0470947287977
0.3754,2.14070258007,-0.0470947287977
0.3756,2.25349481261,-0.0470947287977
0.3758,2.403884456,-0.0470947287977
0.376,2.403884456,-0.0470947287977
0.3762,2.403884456,-0.0470947287977
0.3764,2.403884456,-0.0470947287977
0.3766,2.51667668854,-0.0470947287977
0.3768,2.59187151023,-0.0470947287977
0.377,2.6271190829,-0.0470947287977
0.3772,2.6271190829,-0.0470947287977
0.3774,2.59187151023,-0.0470947287977
0.3776,2.59187151023,-0.0470947287977
0.3778,2.6271190829,-0.0470947287977
0.378,2.6271190829,-0.0470947287977
0.3782,2.59187151023,-0.0470947287977
0.3784,2.59187151023,-0.0470947287977
0.3786,2.51667668854,-0.0470947287977
0.3788,2.55427409938,-0.0470947287977
0.379,2.59187151023,-0.0470947287977
0.3792,2.59187151023,-0.0470947287977
0.3794,2.55427409938,-0.0470947287977
0.3796,2.47907927769,-0.0470947287977
0.3798,2.403884456,-0.0470947287977
0.38,2.403884456,-0.0470947287977
0.3802,2.403884456,-0.0470947287977
0.3804,2.403884456,-0.0470947287977
0.3806,2.36628704515,-0.0470947287977
0.3808,2.36628704515,-0.0470947287977
0.381,2.21589740177,-0.0470947287977
0.3812,2.14070258007,-0.0470947287977
0.3814,2.1054550074,-0.0470947287977
0.3816,2.03026018571,-0.0470947287977
0.3818,1.91746795317,-0.0470947287977
0.382,1.84227313148,-0.0470947287977
0.3822,1.76707830979,-0.0470947287977
0.3824,1.72948089894,-0.0470947287977
0.3826,1.72948089894,-0.0470947287977
0.3828,1.61903850458,-0.0470947287977
0.383,1.50624627204,-0.0470947287977
0.3832,1.3934540395,-0.0470947287977
0.3834,1.24306439611,-0.0470947287977
0.3836,1.16786957442,-0.0470947287977
0.3838,1.0950245909,-0.0470947287977
0.384,0.944634947518,-0.0470947287977
0.3842,0.869440125825,-0.0470947287977
0.3844,0.831842714979,-0.0470947287977
0.3846,0.756647893286,-0.0470947287977
0.3848,0.681453071593,-0.0470947287977
0.385,0.533413266385,-0.0470947287977
0.3852,0.420621033845,-0.0470947287977
0.3854,0.270231390459,-0.0470947287977
0.3856,0.15743915792,-0.0470947287977
0.3858,0.122191585251,-0.0470947287977
0.386,0.0845941744046,-0.0470947287977
0.3862,0.0845941744046,-0.0470947287977
0.3864,0.0469967635581,-0.0470947287977
0.3866,-0.103392879828,-0.0470947287977
0.3868,-0.29137993406,-0.0470947287977
0.387,-0.364224917575,-0.0470947287977
0.3872,-0.477017150115,-0.0470947287977
0.3874,-0.552211971808,-0.0470947287977
0.3876,-0.665004204347,-0.0470947287977
0.3878,-0.740199026041,-0.0470947287977
0.388,-0.815393847734,-0.0470947287977
0.3882,-0.888238831249,-0.0470947287977
0.3884,-0.963433652942,-0.0470947287977
0.3886,-1.00103106379,-0.0470947287977
0.3888,-1.22661552887,-0.0470947287977
0.389,-1.41225274492,-0.0470947287977
0.3892,-1.52504497746,-0.0470947287977
0.3894,-1.56264238831,-0.0470947287977
0.3896,-1.60023979915,-0.0470947287977
0.3898,-1.63783721,-0.0470947287977
0.39,-1.67543462085,-0.0470947287977
0.3902,-1.75062944254,-0.0470947287977
0.3904,-1.78822685339,-0.0470947287977
0.3906,-1.82347442606,-0.0470947287977
0.3908,-1.89866924775,-0.0470947287977
0.391,-1.97386406944,-0.0470947287977
0.3912,-2.04905889113,-0.0470947287977
0.3914,-2.08665630198,-0.0470947287977
0.3916,-2.04905889113,-0.0470947287977
0.3918,-2.04905889113,-0.0470947287977
0.392,-1.97386406944,-0.0470947287977
0.3922,-2.01146148029,-0.0470947287977
0.3924,-2.12425371283,-0.0470947287977
0.3926,-2.19944853452,-0.0470947287977
0.3928,-2.27464335621,-0.0470947287977
0.393,-2.30989092888,-0.0470947287977
0.3932,-2.30989092888,-0.0470947287977
0.3934,-2.30989092888,-0.0470947287977
0.3936,-2.34748833973,-0.0470947287977
0.3938,-2.38508575057,-0.0470947287977
0.394,-2.30989092888,-0.0470947287977
0.3942,-2.30989092888,-0.0470947287977
0.3944,-2.34748833973,-0.0470947287977
0.3946,-2.38508575057,-0.0470947287977
0.3948,-2.49787798311,-0.0470947287977
0.395,-2.49787798311,-0.0470947287977
0.3952,-2.38508575057,-0.0470947287977
0.3954,-2.30989092888,-0.0470947287977
0.3956,-2.19944853452,-0.0470947287977
0.3958,-2.16185112367,-0.0470947287977
0.396,-2.12425371283,-0.0470947287977
0.3962,-2.08665630198,-0.0470947287977
0.3964,-2.01146148029,-0.0470947287977
0.3966,-1.97386406944,-0.0470947287977
0.3968,-1.89866924775,-0.0470947287977
0.397,-1.8610718369,-0.0470947287977
0.3972,-1.82347442606,-0.0470947287977
0.3974,-1.71303203169,-0.0470947287977
0.3976,-1.60023979915,-0.0470947287977
0.3978,-1.48744756661,-0.0470947287977
0.398,-1.41225274492,-0.0470947287977
0.3982,-1.37465533408,-0.0470947287977
0.3984,-1.37465533408,-0.0470947287977
0.3986,-1.37465533408,-0.0470947287977
0.3988,-1.26421293971,-0.0470947287977
0.399,-1.15142070717,-0.0470947287977
0.3992,-1.07622588548,-0.0470947287977
0.3994,-1.00103106379,-0.0470947287977
0.3996,-0.963433652942,-0.0470947287977
0.3998,-0.888238831249,-0.0470947287977
0.4,-0.777796436887,-0.0470947287977
0.4002,-0.740199026041,-0.0470947287977
0.4004,-0.627406793501,-0.0470947287977
0.4006,-0.589809382654,-0.0470947287977
0.4008,-0.514614560961,-0.0470947287977
0.401,-0.364224917575,-0.0470947287977
0.4012,-0.216185112367,-0.0470947287977
0.4014,-0.0657954689814,-0.0470947287977
0.4016,0.00939935271163,-0.0470947287977
0.4018,0.122191585251,-0.0470947287977
0.402,0.15743915792,-0.0470947287977
0.4022,0.270231390459,-0.0470947287977
0.4024,0.420621033845,-0.0470947287977
0.4026,0.533413266385,-0.0470947287977
0.4028,0.608608088078,-0.0470947287977
0.403,0.719050482439,-0.0470947287977
0.4032,0.831842714979,-0.0470947287977
0.4034,0.907037536672,-0.0470947287977
0.4036,1.01982976921,-0.0470947287977
0.4038,1.05742718006,-0.0470947287977
0.404,1.0950245909,-0.0470947287977
0.4042,1.13262200175,-0.0470947287977
0.4044,1.16786957442,-0.0470947287977
0.4046,1.28066180696,-0.0470947287977
0.4048,1.35585662865,-0.0470947287977
0.405,1.43105145034,-0.0470947287977
0.4052,1.46864886119,-0.0470947287977
0.4054,1.46864886119,-0.0470947287977
0.4056,1.54384368288,-0.0470947287977
0.4058,1.58144109373,-0.0470947287977
0.406,1.61903850458,-0.0470947287977
0.4062,1.69188348809,-0.0470947287977
0.4064,1.72948089894,-0.0470947287977
0.4066,1.76707830979,-0.0470947287977
0.4068,1.87987054233,-0.0470947287977
0.407,1.99266277486,-0.0470947287977
0.4072,2.06785759656,-0.0470947287977
0.4074,2.06785759656,-0.0470947287977
0.4076,2.06785759656,-0.0470947287977
0.4078,2.06785759656,-0.0470947287977
0.408,2.1054550074,-0.0470947287977
0.4082,2.14070258007,-0.0470947287977
0.4084,2.17829999092,-0.0470947287977
0.4086,2.21589740177,-0.0470947287977
0.4088,2.21589740177,-0.0470947287977
0.409,2.21589740177,-0.0470947287977
0.4092,2.17829999092,-0.0470947287977
0.4094,2.17829999092,-0.0470947287977
0.4096,2.14070258007,-0.0470947287977
0.4098,2.1054550074,-0.0470947287977
0.41,2.03026018571,-0.0470947287977
0.4102,1.99266277486,-0.0470947287977
0.4104,1.99266277486,-0.0470947287977
0.4106,1.99266277486,-0.0470947287977
0.4108,1.91746795317,-0.0470947287977
0.411,1.87987054233,-0.0470947287977
0.4112,1.80467572063,-0.0470947287977
0.4114,1.76707830979,-0.0470947287977
0.4116,1.72948089894,-0.0470947287977
0.4118,1.69188348809,-0.0470947287977
0.412,1.69188348809,-0.0470947287977
0.4122,1.61903850458,-0.0470947287977
0.4124,1.58144109373,-0.0470947287977
0.4126,1.54384368288,-0.0470947287977
0.4128,1.54384368288,-0.0470947287977
0.413,1.50624627204,-0.0470947287977
0.4132,1.43105145034,-0.0470947287977
0.4134,1.31825921781,-0.0470947287977
0.4136,1.28066180696,-0.0470947287977
0.4138,1.20546698527,-0.0470947287977
0.414,1.16786957442,-0.0470947287977
0.4142,1.13262200175,-0.0470947287977
0.4144,1.0950245909,-0.0470947287977
0.4146,0.982232358365,-0.0470947287977
0.4148,0.869440125825,-0.0470947287977
0.415,0.794245304132,-0.0470947287977
0.4152,0.681453071593,-0.0470947287977
0.4154,0.608608088078,-0.0470947287977
0.4156,0.495815855538,-0.0470947287977
0.4158,0.420621033845,-0.0470947287977
0.416,0.345426212152,-0.0470947287977
0.4162,0.232633979613,-0.0470947287977
0.4164,0.232633979613,-0.0470947287977
0.4166,0.122191585251,-0.0470947287977
0.4168,0.00939935271163,-0.0470947287977
0.417,-0.103392879828,-0.0470947287977
0.4172,-0.216185112367,-0.0470947287977
0.4174,-0.328977344907,-0.0470947287977
0.4176,-0.401822328422,-0.0470947287977
0.4178,-0.439419739268,-0.0470947287977
0.418,-0.477017150115,-0.0470947287977
0.4182,-0.514614560961,-0.0470947287977
0.4184,-0.589809382654,-0.0470947287977
0.4186,-0.627406793501,-0.0470947287977
0.4188,-0.702601615194,-0.0470947287977
0.419,-0.777796436887,-0.0470947287977
0.4192,-0.888238831249,-0.0470947287977
0.4194,-1.00103106379,-0.0470947287977
0.4196,-1.03862847463,-0.0470947287977
0.4198,-1.07622588548,-0.0470947287977
0.42,-1.07622588548,-0.0470947287977
0.4202,-1.11382329633,-0.0470947287977
0.4204,-1.22661552887,-0.0470947287977
0.4206,-1.30181035056,-0.0470947287977
0.4208,-1.37465533408,-0.0470947287977
0.421,-1.48744756661,-0.0470947287977
0.4212,-1.60023979915,-0.0470947287977
0.4214,-1.67543462085,-0.0470947287977
0.4216,-1.75062944254,-0.0470947287977
0.4218,-1.78822685339,-0.0470947287977
0.422,-1.78822685339,-0.0470947287977
0.4222,-1.78822685339,-0.0470947287977
0.4224,-1.78822685339,-0.0470947287977
0.4226,-1.82347442606,-0.0470947287977
0.4228,-1.8610718369,-0.0470947287977
0.423,-1.89866924775,-0.0470947287977
0.4232,-1.89866924775,-0.0470947287977
0.4234,-1.8610718369,-0.0470947287977
0.4236,-1.8610718369,-0.0470947287977
0.4238,-1.82347442606,-0.0470947287977
0.424,-1.82347442606,-0.0470947287977
0.4242,-1.78822685339,-0.0470947287977
0.4244,-1.78822685339,-0.0470947287977
0.4246,-1.78822685339,-0.0470947287977
0.4248,-1.78822685339,-0.0470947287977
0.425,-1.78822685339,-0.0470947287977
0.4252,-1.78822685339,-0.0470947287977
0.4254,-1.78822685339,-0.0470947287977
0.4256,-1.71303203169,-0.0470947287977
0.4258,-1.71303203169,-0.0470947287977
0.426,-1.71303203169,-0.0470947287977
0.4262,-1.71303203169,-0.0470947287977
0.4264,-1.71303203169,-0.0470947287977
0.4266,-1.71303203169,-0.0470947287977
0.4268,-1.71303203169,-0.0470947287977
0.427,-1.67543462085,-0.0470947287977
0.4272,-1.60023979915,-0.0470947287977
0.4274,-1.56264238831,-0.0470947287977
0.4276,-1.52504497746,-0.0470947287977
0.4278,-1.44985015577,-0.0470947287977
0.428,-1.37465533408,-0.0470947287977
0.4282,-1.33705792323,-0.0470947287977
0.4284,-1.26421293971,-0.0470947287977
0.4286,-1.18901811802,-0.0470947287977
0.4288,-1.11382329633,-0.0470947287977
0.429,-1.00103106379,-0.0470947287977
0.4292,-0.925836242095,-0.0470947287977
0.4294,-0.815393847734,-0.0470947287977
0.4296,-0.740199026041,-0.0470947287977
0.4298,-0.665004204347,-0.0470947287977
0.43,-0.627406793501,-0.0470947287977
0.4302,-0.552211971808,-0.0470947287977
0.4304,-0.477017150115,-0.0470947287977
0.4306,-0.401822328422,-0.0470947287977
0.4308,-0.328977344907,-0.0470947287977
0.431,-0.328977344907,-0.0470947287977
0.4312,-0.253782523214,-0.0470947287977
0.4314,-0.178587701521,-0.0470947287977
0.4316,-0.103392879828,-0.0470947287977
0.4318,-0.0657954689814,-0.0470947287977
0.432,-0.0281980581349,-0.0470947287977
0.4322,-0.0281980581349,-0.0470947287977
0.4324,0.0469967635581,-0.0470947287977
0.4326,0.122191585251,-0.0470947287977
0.4328,0.232633979613,-0.0470947287977
0.433,0.345426212152,-0.0470947287977
0.4332,0.420621033845,-0.0470947287977
0.4334,0.495815855538,-0.0470947287977
0.4336,0.533413266385,-0.0470947287977
0.4338,0.608608088078,-0.0470947287977
0.434,0.681453071593,-0.0470947287977
0.4342,0.756647893286,-0.0470947287977
0.4344,0.831842714979,-0.0470947287977
0.4346,0.907037536672,-0.0470947287977
0.4348,1.01982976921,-0.0470947287977
0.435,1.13262200175,-0.0470947287977
0.4352,1.16786957442,-0.0470947287977
0.4354,1.24306439611,-0.0470947287977
0.4356,1.24306439611,-0.0470947287977
0.4358,1.28066180696,-0.0470947287977
0.436,1.31825921781,-0.0470947287977
0.4362,1.35585662865,-0.0470947287977
0.4364,1.3934540395,-0.0470947287977
0.4366,1.43105145034,-0.0470947287977
0.4368,1.43105145034,-0.0470947287977
0.437,1.43105145034,-0.0470947287977
0.4372,1.46864886119,-0.0470947287977
0.4374,1.46864886119,-0.0470947287977
0.4376,1.46864886119,-0.0470947287977
0.4378,1.46864886119,-0.0470947287977
0.438,1.46864886119,-0.0470947287977
0.4382,1.50624627204,-0.0470947287977
0.4384,1.58144109373,-0.0470947287977
0.4386,1.58144109373,-0.0470947287977
0.4388,1.61903850458,-0.0470947287977
0.439,1.61903850458,-0.0470947287977
0.4392,1.61903850458,-0.0470947287977
0.4394,1.61903850458,-0.0470947287977
0.4396,1.61903850458,-0.0470947287977
0.4398,1.65428607725,-0.0470947287977
0.44,1.65428607725,-0.0470947287977
0.4402,1.65428607725,-0.0470947287977
0.4404,1.69188348809,-0.0470947287977
0.4406,1.69188348809,-0.0470947287977
0.4408,1.69188348809,-0.0470947287977
0.441,1.61903850458,-0.0470947287977
0.4412,1.61903850458,-0.0470947287977
0.4414,1.50624627204,-0.0470947287977
0.4416,1.46864886119,-0.0470947287977
0.4418,1.43105145034,-0.0470947287977
0.442,1.43105145034,-0.0470947287977
0.4422,1.35585662865,-0.0470947287977
0.4424,1.31825921781,-0.0470947287977
0.4426,1.28066180696,-0.0470947287977
0.4428,1.20546698527,-0.0470947287977
0.443,1.13262200175,-0.0470947287977
0.4432,1.0950245909,-0.0470947287977
0.4434,1.01982976921,-0.0470947287977
0.4436,0.944634947518,-0.0470947287977
0.4438,0.907037536672,-0.0470947287977
0.444,0.831842714979,-0.0470947287977
0.4442,0.831842714979,-0.0470947287977
0.4444,0.831842714979,-0.0470947287977
0.4446,0.719050482439,-0.0470947287977
0.4448,0.681453071593,-0.0470947287977
0.445,0.571010677231,-0.0470947287977
0.4452,0.533413266385,-0.0470947287977
0.4454,0.495815855538,-0.0470947287977
0.4456,0.458218444692,-0.0470947287977
0.4458,0.420621033845,-0.0470947287977
0.446,0.383023622999,-0.0470947287977
0.4462,0.307828801306,-0.0470947287977
0.4464,0.232633979613,-0.0470947287977
0.4466,0.15743915792,-0.0470947287977
0.4468,0.122191585251,-0.0470947287977
0.447,0.0469967635581,-0.0470947287977
0.4472,-0.0657954689814,-0.0470947287977
0.4474,-0.103392879828,-0.0470947287977
0.4476,-0.178587701521,-0.0470947287977
0.4478,-0.216185112367,-0.0470947287977
0.448,-0.29137993406,-0.0470947287977
0.4482,-0.328977344907,-0.0470947287977
0.4484,-0.439419739268,-0.0470947287977
0.4486,-0.552211971808,-0.0470947287977
0.4488,-0.627406793501,-0.0470947287977
0.449,-0.665004204347,-0.0470947287977
0.4492,-0.740199026041,-0.0470947287977
0.4494,-0.777796436887,-0.0470947287977
0.4496,-0.850641420402,-0.0470947287977
0.4498,-0.925836242095,-0.0470947287977
0.45,-0.963433652942,-0.0470947287977
0.4502,-0.963433652942,-0.0470947287977
0.4504,-0.963433652942,-0.0470947287977
0.4506,-1.03862847463,-0.0470947287977
0.4508,-1.11382329633,-0.0470947287977
0.451,-1.11382329633,-0.0470947287977
0.4512,-1.11382329633,-0.0470947287977
0.4514,-1.15142070717,-0.0470947287977
0.4516,-1.15142070717,-0.0470947287977
0.4518,-1.18901811802,-0.0470947287977
0.452,-1.22661552887,-0.0470947287977
0.4522,-1.22661552887,-0.0470947287977
0.4524,-1.26421293971,-0.0470947287977
0.4526,-1.26421293971,-0.0470947287977
0.4528,-1.37465533408,-0.0470947287977
0.453,-1.37465533408,-0.0470947287977
0.4532,-1.41225274492,-0.0470947287977
0.4534,-1.44985015577,-0.0470947287977
0.4536,-1.44985015577,-0.0470947287977
0.4538,-1.44985015577,-0.0470947287977
0.454,-1.48744756661,-0.0470947287977
0.4542,-1.52504497746,-0.0470947287977
0.4544,-1.52504497746,-0.0470947287977
0.4546,-1.48744756661,-0.0470947287977
0.4548,-1.48744756661,-0.0470947287977
0.455,-1.44985015577,-0.0470947287977
0.4552,-1.41225274492,-0.0470947287977
0.4554,-1.37465533408,-0.0470947287977
0.4556,-1.33705792323,-0.0470947287977
0.4558,-1.30181035056,-0.0470947287977
0.456,-1.26421293971,-0.0470947287977
0.4562,-1.22661552887,-0.0470947287977
0.4564,-1.18901811802,-0.0470947287977
0.4566,-1.15142070717,-0.0470947287977
0.4568,-1.11382329633,-0.0470947287977
0.457,-1.11382329633,-0.0470947287977
0.4572,-1.07622588548,-0.0470947287977
0.4574,-1.00103106379,-0.0470947287977
0.4576,-1.00103106379,-0.0470947287977
0.4578,-1.00103106379,-0.0470947287977
0.458,-0.963433652942,-0.0470947287977
0.4582,-0.963433652942,-0.0470947287977
0.4584,-0.925836242095,-0.0470947287977
0.4586,-0.888238831249,-0.0470947287977
0.4588,-0.850641420402,-0.0470947287977
0.459,-0.815393847734,-0.0470947287977
0.4592,-0.777796436887,-0.0470947287977
0.4594,-0.702601615194,-0.0470947287977
0.4596,-0.665004204347,-0.0470947287977
0.4598,-0.627406793501,-0.0470947287977
0.46,-0.589809382654,-0.0470947287977
0.4602,-0.514614560961,-0.0470947287977
0.4604,-0.439419739268,-0.0470947287977
0.4606,-0.364224917575,-0.0470947287977
0.4608,-0.253782523214,-0.0470947287977
0.461,-0.178587701521,-0.0470947287977
0.4612,-0.140990290674,-0.0470947287977
0.4614,-0.103392879828,-0.0470947287977
0.4616,-0.0281980581349,-0.0470947287977
0.4618,0.00939935271163,-0.0470947287977
0.462,0.0845941744046,-0.0470947287977
0.4622,0.122191585251,-0.0470947287977
0.4624,0.195036568766,-0.0470947287977
0.4626,0.232633979613,-0.0470947287977
0.4628,0.307828801306,-0.0470947287977
0.463,0.345426212152,-0.0470947287977
0.4632,0.420621033845,-0.0470947287977
0.4634,0.420621033845,-0.0470947287977
0.4636,0.420621033845,-0.0470947287977
0.4638,0.420621033845,-0.0470947287977
0.464,0.420621033845,-0.0470947287977
0.4642,0.495815855538,-0.0470947287977
0.4644,0.571010677231,-0.0470947287977
0.4646,0.608608088078,-0.0470947287977
0.4648,0.646205498924,-0.0470947287977
0.465,0.681453071593,-0.0470947287977
0.4652,0.719050482439,-0.0470947287977
0.4654,0.794245304132,-0.0470947287977
0.4656,0.794245304132,-0.0470947287977
0.4658,0.831842714979,-0.0470947287977
0.466,0.869440125825,-0.0470947287977
0.4662,0.907037536672,-0.0470947287977
0.4664,1.01982976921,-0.0470947287977
0.4666,1.05742718006,-0.0470947287977
0.4668,1.13262200175,-0.0470947287977
0.467,1.13262200175,-0.0470947287977
0.4672,1.13262200175,-0.0470947287977
0.4674,1.16786957442,-0.0470947287977
0.4676,1.16786957442,-0.0470947287977
0.4678,1.16786957442,-0.0470947287977
0.468,1.20546698527,-0.0470947287977
0.4682,1.16786957442,-0.0470947287977
0.4684,1.20546698527,-0.0470947287977
0.4686,1.20546698527,-0.0470947287977
0.4688,1.20546698527,-0.0470947287977
0.469,1.20546698527,-0.0470947287977
0.4692,1.16786957442,-0.0470947287977
0.4694,1.13262200175,-0.0470947287977
0.4696,1.0950245909,-0.0470947287977
0.4698,1.0950245909,-0.0470947287977
0.47,1.0950245909,-0.0470947287977
0.4702,1.0950245909,-0.0470947287977
0.4704,1.0950245909,-0.0470947287977
0.4706,1.0950245909,-0.0470947287977
0.4708,1.0950245909,-0.0470947287977
0.471,1.01982976921,-0.0470947287977
0.4712,1.01982976921,-0.0470947287977
0.4714,1.01982976921,-0.0470947287977
0.4716,0.982232358365,-0.0470947287977
0.4718,0.982232358365,-0.0470947287977
0.472,0.982232358365,-0.0470947287977
0.4722,1.01982976921,-0.0470947287977
0.4724,1.01982976921,-0.0470947287977
0.4726,0.982232358365,-0.0470947287977
0.4728,0.907037536672,-0.0470947287977
0.473,0.869440125825,-0.0470947287977
0.4732,0.831842714979,-0.0470947287977
0.4734,0.794245304132,-0.0470947287977
0.4736,0.756647893286,-0.0470947287977
0.4738,0.719050482439,-0.0470947287977
0.474,0.681453071593,-0.0470947287977
0.4742,0.608608088078,-0.0470947287977
0.4744,0.571010677231,-0.0470947287977
0.4746,0.495815855538,-0.0470947287977
0.4748,0.420621033845,-0.0470947287977
0.475,0.345426212152,-0.0470947287977
0.4752,0.270231390459,-0.0470947287977
0.4754,0.232633979613,-0.0470947287977
0.4756,0.195036568766,-0.0470947287977
0.4758,0.195036568766,-0.0470947287977
0.476,0.122191585251,-0.0470947287977
0.4762,0.0845941744046,-0.0470947287977
0.4764,0.0469967635581,-0.0470947287977
0.4766,-0.0281980581349,-0.0470947287977
0.4768,-0.0657954689814,-0.0470947287977
0.477,-0.103392879828,-0.0470947287977
0.4772,-0.103392879828,-0.0470947287977
0.4774,-0.140990290674,-0.0470947287977
0.4776,-0.178587701521,-0.0470947287977
0.4778,-0.178587701521,-0.0470947287977
0.478,-0.216185112367,-0.0470947287977
0.4782,-0.253782523214,-0.0470947287977
0.4784,-0.29137993406,-0.0470947287977
0.4786,-0.364224917575,-0.0470947287977
0.4788,-0.401822328422,-0.0470947287977
0.479,-0.477017150115,-0.0470947287977
0.4792,-0.514614560961,-0.0470947287977
0.4794,-0.514614560961,-0.0470947287977
0.4796,-0.589809382654,-0.0470947287977
0.4798,-0.589809382654,-0.0470947287977
0.48,-0.665004204347,-0.0470947287977
0.4802,-0.702601615194,-0.0470947287977
0.4804,-0.740199026041,-0.0470947287977
0.4806,-0.815393847734,-0.0470947287977
0.4808,-0.815393847734,-0.0470947287977
0.481,-0.888238831249,-0.0470947287977
0.4812,-0.925836242095,-0.0470947287977
0.4814,-0.925836242095,-0.0470947287977
0.4816,-0.925836242095,-0.0470947287977
0.4818,-0.925836242095,-0.0470947287977
0.482,-0.925836242095,-0.0470947287977
0.4822,-0.963433652942,-0.0470947287977
0.4824,-0.963433652942,-0.0470947287977
0.4826,-0.963433652942,-0.0470947287977
0.4828,-0.963433652942,-0.0470947287977
0.483,-0.963433652942,-0.0470947287977
0.4832,-0.963433652942,-0.0470947287977
0.4834,-0.925836242095,-0.0470947287977
0.4836,-0.925836242095,-0.0470947287977
0.4838,-0.925836242095,-0.0470947287977
0.484,-0.925836242095,-0.0470947287977
0.4842,-0.925836242095,-0.0470947287977
0.4844,-0.963433652942,-0.0470947287977
0.4846,-0.925836242095,-0.0470947287977
0.4848,-1.00103106379,-0.0470947287977
0.485,-0.963433652942,-0.0470947287977
0.4852,-0.963433652942,-0.0470947287977
0.4854,-0.925836242095,-0.0470947287977
0.4856,-0.963433652942,-0.0470947287977
0.4858,-0.925836242095,-0.0470947287977
0.486,-0.925836242095,-0.0470947287977
0.4862,-0.925836242095,-0.0470947287977
0.4864,-0.925836242095,-0.0470947287977
0.4866,-0.888238831249,-0.0470947287977
0.4868,-0.815393847734,-0.0470947287977
0.487,-0.815393847734,-0.0470947287977
0.4872,-0.740199026041,-0.0470947287977
0.4874,-0.702601615194,-0.0470947287977
0.4876,-0.627406793501,-0.0470947287977
0.4878,-0.627406793501,-0.0470947287977
0.488,-0.589809382654,-0.0470947287977
0.4882,-0.552211971808,-0.0470947287977
0.4884,-0.514614560961,-0.0470947287977
0.4886,-0.477017150115,-0.0470947287977
0.4888,-0.401822328422,-0.0470947287977
0.489,-0.364224917575,-0.0470947287977
0.4892,-0.364224917575,-0.0470947287977
0.4894,-0.328977344907,-0.0470947287977
0.4896,-0.29137993406,-0.0470947287977
0.4898,-0.29137993406,-0.0470947287977
0.49,-0.253782523214,-0.0470947287977
0.4902,-0.216185112367,-0.0470947287977
0.4904,-0.216185112367,-0.0470947287977
0.4906,-0.178587701521,-0.0470947287977
0.4908,-0.140990290674,-0.0470947287977
0.491,-0.0657954689814,-0.0470947287977
0.4912,-0.0657954689814,-0.0470947287977
0.4914,-0.0281980581349,-0.0470947287977
0.4916,-0.0281980581349,-0.0470947287977
0.4918,0.00939935271163,-0.0470947287977
0.492,0.0469967635581,-0.0470947287977
0.4922,0.122191585251,-0.0470947287977
0.4924,0.15743915792,-0.0470947287977
0.4926,0.232633979613,-0.0470947287977
0.4928,0.270231390459,-0.0470947287977
0.493,0.307828801306,-0.0470947287977
0.4932,0.345426212152,-0.0470947287977
0.4934,0.383023622999,-0.0470947287977
0.4936,0.420621033845,-0.0470947287977
0.4938,0.420621033845,-0.0470947287977
0.494,0.458218444692,-0.0470947287977
0.4942,0.495815855538,-0.0470947287977
0.4944,0.533413266385,-0.0470947287977
0.4946,0.608608088078,-0.0470947287977
0.4948,0.608608088078,-0.0470947287977
0.495,0.608608088078,-0.0470947287977
0.4952,0.646205498924,-0.0470947287977
0.4954,0.608608088078,-0.0470947287977
0.4956,0.646205498924,-0.0470947287977
0.4958,0.608608088078,-0.0470947287977
0.496,0.608608088078,-0.0470947287977
0.4962,0.681453071593,-0.0470947287977
0.4964,0.681453071593,-0.0470947287977
0.4966,0.681453071593,-0.0470947287977
0.4968,0.719050482439,-0.0470947287977
0.497,0.681453071593,-0.0470947287977
0.4972,0.681453071593,-0.0470947287977
0.4974,0.681453071593,-0.0470947287977
0.4976,0.681453071593,-0.0470947287977
0.4978,0.756647893286,-0.0470947287977
0.498,0.756647893286,-0.0470947287977
0.4982,0.794245304132,-0.0470947287977
0.4984,0.794245304132,-0.0470947287977
0.4986,0.831842714979,-0.0470947287977
0.4988,0.831842714979,-0.0470947287977
0.499,0.831842714979,-0.0470947287977
0.4992,0.831842714979,-0.0470947287977
0.4994,0.831842714979,-0.0470947287977
0.4996,0.794245304132,-0.0470947287977
0.4998,0.831842714979,-0.0470947287977
0.5,0.831842714979,-0.0470947287977
0.5002,0.794245304132,-0.0470947287977
0.5004,0.756647893286,-0.0470947287977
0.5006,0.756647893286,-0.0470947287977
0.5008,0.719050482439,-0.0470947287977
0.501,0.646205498924,-0.0470947287977
0.5012,0.608608088078,-0.0470947287977
0.5014,0.608608088078,-0.0470947287977
0.5016,0.608608088078,-0.0470947287977
0.5018,0.571010677231,-0.0470947287977
0.502,0.533413266385,-0.0470947287977
0.5022,0.533413266385,-0.0470947287977
0.5024,0.495815855538,-0.0470947287977
0.5026,0.495815855538,-0.0470947287977
0.5028,0.420621033845,-0.0470947287977
0.503,0.420621033845,-0.0470947287977
0.5032,0.383023622999,-0.0470947287977
0.5034,0.383023622999,-0.0470947287977
0.5036,0.345426212152,-0.0470947287977
0.5038,0.383023622999,-0.0470947287977
0.504,0.345426212152,-0.0470947287977
0.5042,0.307828801306,-0.0470947287977
0.5044,0.270231390459,-0.0470947287977
0.5046,0.232633979613,-0.0470947287977
0.5048,0.232633979613,-0.0470947287977
0.505,0.195036568766,-0.0470947287977
0.5052,0.15743915792,-0.0470947287977
0.5054,0.122191585251,-0.0470947287977
0.5056,0.0845941744046,-0.0470947287977
0.5058,0.0845941744046,-0.0470947287977
0.506,0.0469967635581,-0.0470947287977
0.5062,0.00939935271163,-0.0470947287977
0.5064,-0.0281980581349,-0.0470947287977
0.5066,-0.140990290674,-0.0470947287977
0.5068,-0.178587701521,-0.0470947287977
0.507,-0.216185112367,-0.0470947287977
0.5072,-0.253782523214,-0.0470947287977
0.5074,-0.253782523214,-0.0470947287977
0.5076,-0.29137993406,-0.0470947287977
0.5078,-0.29137993406,-0.0470947287977
0.508,-0.328977344907,-0.0470947287977
0.5082,-0.364224917575,-0.0470947287977
0.5084,-0.401822328422,-0.0470947287977
0.5086,-0.439419739268,-0.0470947287977
0.5088,-0.477017150115,-0.0470947287977
0.509,-0.477017150115,-0.0470947287977
0.5092,-0.477017150115,-0.0470947287977
0.5094,-0.477017150115,-0.0470947287977
0.5096,-0.477017150115,-0.0470947287977
0.5098,-0.477017150115,-0.0470947287977
0.51,-0.514614560961,-0.0470947287977
0.5102,-0.552211971808,-0.0470947287977
0.5104,-0.589809382654,-0.0470947287977
0.5106,-0.589809382654,-0.0470947287977
0.5108,-0.627406793501,-0.0470947287977
0.511,-0.627406793501,-0.0470947287977
0.5112,-0.589809382654,-0.0470947287977
0.5114,-0.627406793501,-0.0470947287977
0.5116,-0.627406793501,-0.0470947287977
0.5118,-0.627406793501,-0.0470947287977
0.512,-0.627406793501,-0.0470947287977
0.5122,-0.665004204347,-0.0470947287977
0.5124,-0.702601615194,-0.0470947287977
0.5126,-0.740199026041,-0.0470947287977
0.5128,-0.740199026041,-0.0470947287977
0.513,-0.702601615194,-0.0470947287977
0.5132,-0.665004204347,-0.0470947287977
0.5134,-0.665004204347,-0.0470947287977
0.5136,-0.665004204347,-0.0470947287977
0.5138,-0.665004204347,-0.0470947287977
0.514,-0.627406793501,-0.0470947287977
0.5142,-0.665004204347,-0.0470947287977
0.5144,-0.627406793501,-0.0470947287977
0.5146,-0.627406793501,-0.0470947287977
0.5148,-0.589809382654,-0.0470947287977
0.515,-0.589809382654,-0.0470947287977
0.5152,-0.552211971808,-0.0470947287977
0.5154,-0.477017150115,-0.0470947287977
0.5156,-0.514614560961,-0.0470947287977
0.5158,-0.477017150115,-0.0470947287977
0.516,-0.514614560961,-0.0470947287977
0.5162,-0.514614560961,-0.0470947287977
0.5164,-0.477017150115,-0.0470947287977
0.5166,-0.439419739268,-0.0470947287977
0.5168,-0.401822328422,-0.0470947287977
0.517,-0.401822328422,-0.0470947287977
0.5172,-0.364224917575,-0.0470947287977
0.5174,-0.328977344907,-0.0470947287977
0.5176,-0.328977344907,-0.0470947287977
0.5178,-0.328977344907,-0.0470947287977
0.518,-0.328977344907,-0.0470947287977
0.5182,-0.29137993406,-0.0470947287977
0.5184,-0.253782523214,-0.0470947287977
0.5186,-0.216185112367,-0.0470947287977
0.5188,-0.178587701521,-0.0470947287977
0.519,-0.0657954689814,-0.0470947287977
0.5192,-0.0281980581349,-0.0470947287977
0.5194,-0.0281980581349,-0.0470947287977
0.5196,-0.0281980581349,-0.0470947287977
0.5198,-0.0281980581349,-0.0470947287977
0.52,0.00939935271163,-0.0470947287977
0.5202,0.0845941744046,-0.0470947287977
0.5204,0.0845941744046,-0.0470947287977
0.5206,0.122191585251,-0.0470947287977
0.5208,0.15743915792,-0.0470947287977
0.521,0.195036568766,-0.0470947287977
0.5212,0.195036568766,-0.0470947287977
0.5214,0.195036568766,-0.0470947287977
0.5216,0.232633979613,-0.0470947287977
0.5218,0.232633979613,-0.0470947287977
0.522,0.232633979613,-0.0470947287977
0.5222,0.270231390459,-0.0470947287977
0.5224,0.307828801306,-0.0470947287977
0.5226,0.345426212152,-0.0470947287977
0.5228,0.383023622999,-0.0470947287977
0.523,0.383023622999,-0.0470947287977
0.5232,0.383023622999,-0.0470947287977
0.5234,0.383023622999,-0.0470947287977
0.5236,0.420621033845,-0.0470947287977
0.5238,0.458218444692,-0.0470947287977
0.524,0.458218444692,-0.0470947287977
0.5242,0.458218444692,-0.0470947287977
0.5244,0.495815855538,-0.0470947287977
0.5246,0.533413266385,-0.0470947287977
0.5248,0.533413266385,-0.0470947287977
0.525,0.571010677231,-0.0470947287977
0.5252,0.571010677231,-0.0470947287977
0.5254,0.533413266385,-0.0470947287977
0.5256,0.533413266385,-0.0470947287977
0.5258,0.571010677231,-0.0470947287977
0.526,0.571010677231,-0.0470947287977
0.5262,0.608608088078,-0.0470947287977
0.5264,0.608608088078,-0.0470947287977
0.5266,0.608608088078,-0.0470947287977
0.5268,0.571010677231,-0.0470947287977
0.527,0.608608088078,-0.0470947287977
0.5272,0.571010677231,-0.0470947287977
0.5274,0.571010677231,-0.0470947287977
0.5276,0.533413266385,-0.0470947287977
0.5278,0.533413266385,-0.0470947287977
0.528,0.571010677231,-0.0470947287977
0.5282,0.571010677231,-0.0470947287977
0.5284,0.571010677231,-0.0470947287977
0.5286,0.571010677231,-0.0470947287977
0.5288,0.533413266385,-0.0470947287977
0.529,0.495815855538,-0.0470947287977
0.5292,0.495815855538,-0.0470947287977
0.5294,0.495815855538,-0.0470947287977
0.5296,0.495815855538,-0.0470947287977
0.5298,0.458218444692,-0.0470947287977
0.53,0.420621033845,-0.0470947287977
0.5302,0.420621033845,-0.0470947287977
0.5304,0.420621033845,-0.0470947287977
0.5306,0.420621033845,-0.0470947287977
0.5308,0.383023622999,-0.0470947287977
0.531,0.345426212152,-0.0470947287977
0.5312,0.307828801306,-0.0470947287977
0.5314,0.307828801306,-0.0470947287977
0.5316,0.270231390459,-0.0470947287977
0.5318,0.270231390459,-0.0470947287977
0.532,0.270231390459,-0.0470947287977
0.5322,0.232633979613,-0.0470947287977
0.5324,0.232633979613,-0.0470947287977
0.5326,0.15743915792,-0.0470947287977
0.5328,0.122191585251,-0.0470947287977
0.533,0.0845941744046,-0.0470947287977
0.5332,0.0845941744046,-0.0470947287977
0.5334,0.0469967635581,-0.0470947287977
0.5336,0.00939935271163,-0.0470947287977
0.5338,0.00939935271163,-0.0470947287977
0.534,0.00939935271163,-0.0470947287977
0.5342,-0.0281980581349,-0.0470947287977
0.5344,-0.0657954689814,-0.0470947287977
0.5346,-0.0657954689814,-0.0470947287977
0.5348,-0.178587701521,-0.0470947287977
0.535,-0.178587701521,-0.0470947287977
0.5352,-0.178587701521,-0.0470947287977
0.5354,-0.178587701521,-0.0470947287977
0.5356,-0.178587701521,-0.0470947287977
0.5358,-0.216185112367,-0.0470947287977
0.536,-0.253782523214,-0.0470947287977
0.5362,-0.29137993406,-0.0470947287977
0.5364,-0.29137993406,-0.0470947287977
0.5366,-0.328977344907,-0.0470947287977
0.5368,-0.364224917575,-0.0470947287977
0.537,-0.364224917575,-0.0470947287977
0.5372,-0.364224917575,-0.0470947287977
0.5374,-0.401822328422,-0.0470947287977
0.5376,-0.364224917575,-0.0470947287977
0.5378,-0.364224917575,-0.0470947287977
0.538,-0.439419739268,-0.0470947287977
0.5382,-0.477017150115,-0.0470947287977
0.5384,-0.514614560961,-0.0470947287977
0.5386,-0.552211971808,-0.0470947287977
0.5388,-0.552211971808,-0.0470947287977
0.539,-0.514614560961,-0.0470947287977
0.5392,-0.514614560961,-0.0470947287977
0.5394,-0.514614560961,-0.0470947287977
0.5396,-0.552211971808,-0.0470947287977
0.5398,-0.552211971808,-0.0470947287977
0.54,-0.552211971808,-0.0470947287977
0.5402,-0.589809382654,-0.0470947287977
0.5404,-0.627406793501,-0.0470947287977
0.5406,-0.627406793501,-0.0470947287977
0.5408,-0.627406793501,-0.0470947287977
0.541,-0.589809382654,-0.0470947287977
0.5412,-0.552211971808,-0.0470947287977
0.5414,-0.514614560961,-0.0470947287977
0.5416,-0.552211971808,-0.0470947287977
0.5418,-0.552211971808,-0.0470947287977
0.542,-0.552211971808,-0.0470947287977
0.5422,-0.552211971808,-0.0470947287977
0.5424,-0.552211971808,-0.0470947287977
0.5426,-0.514614560961,-0.0470947287977
0.5428,-0.514614560961,-0.0470947287977
0.543,-0.514614560961,-0.0470947287977
0.5432,-0.477017150115,-0.0470947287977
0.5434,-0.477017150115,-0.0470947287977
0.5436,-0.401822328422,-0.0470947287977
0.5438,-0.477017150115,-0.0470947287977
0.544,-0.477017150115,-0.0470947287977
0.5442,-0.477017150115,-0.0470947287977
0.5444,-0.477017150115,-0.0470947287977
0.5446,-0.401822328422,-0.0470947287977
0.5448,-0.364224917575,-0.0470947287977
0.545,-0.364224917575,-0.0470947287977
0.5452,-0.328977344907,-0.0470947287977
0.5454,-0.328977344907,-0.0470947287977
0.5456,-0.29137993406,-0.0470947287977
0.5458,-0.253782523214,-0.0470947287977
0.546,-0.253782523214,-0.0470947287977
0.5462,-0.216185112367,-0.0470947287977
0.5464,-0.178587701521,-0.0470947287977
0.5466,-0.178587701521,-0.0470947287977
0.5468,-0.103392879828,-0.0470947287977
0.547,-0.0657954689814,-0.0470947287977
0.5472,-0.0657954689814,-0.0470947287977
0.5474,-0.0281980581349,-0.0470947287977
0.5476,-0.0281980581349,-0.0470947287977
0.5478,-0.0281980581349,-0.0470947287977
0.548,-0.0281980581349,-0.0470947287977
0.5482,0.0469967635581,-0.0470947287977
0.5484,0.0845941744046,-0.0470947287977
0.5486,0.0845941744046,-0.0470947287977
0.5488,0.0845941744046,-0.0470947287977
0.549,0.15743915792,-0.0470947287977
0.5492,0.195036568766,-0.0470947287977
0.5494,0.195036568766,-0.0470947287977
0.5496,0.232633979613,-0.0470947287977
0.5498,0.232633979613,-0.0470947287977
0.55,0.232633979613,-0.0470947287977
0.5502,0.270231390459,-0.0470947287977
0.5504,0.307828801306,-0.0470947287977
0.5506,0.383023622999,-0.0470947287977
0.5508,0.383023622999,-0.0470947287977
0.551,0.420621033845,-0.0470947287977
0.5512,0.420621033845,-0.0470947287977
0.5514,0.420621033845,-0.0470947287977
0.5516,0.495815855538,-0.0470947287977
0.5518,0.495815855538,-0.0470947287977
0.552,0.495815855538,-0.0470947287977
0.5522,0.533413266385,-0.0470947287977
0.5524,0.533413266385,-0.0470947287977
0.5526,0.571010677231,-0.0470947287977
0.5528,0.571010677231,-0.0470947287977
0.553,0.571010677231,-0.0470947287977
0.5532,0.571010677231,-0.0470947287977
0.5534,0.533413266385,-0.0470947287977
0.5536,0.533413266385,-0.0470947287977
0.5538,0.571010677231,-0.0470947287977
0.554,0.571010677231,-0.0470947287977
0.5542,0.608608088078,-0.0470947287977
0.5544,0.608608088078,-0.0470947287977
0.5546,0.646205498924,-0.0470947287977
0.5548,0.608608088078,-0.0470947287977
0.555,0.608608088078,-0.0470947287977
0.5552,0.608608088078,-0.0470947287977
0.5554,0.608608088078,-0.0470947287977
0.5556,0.608608088078,-0.0470947287977
0.5558,0.608608088078,-0.0470947287977
0.556,0.608608088078,-0.0470947287977
0.5562,0.608608088078,-0.0470947287977
0.5564,0.608608088078,-0.0470947287977
0.5566,0.608608088078,-0.0470947287977
0.5568,0.571010677231,-0.0470947287977
0.557,0.571010677231,-0.0470947287977
0.5572,0.533413266385,-0.0470947287977
0.5574,0.533413266385,-0.0470947287977
0.5576,0.533413266385,-0.0470947287977
0.5578,0.495815855538,-0.0470947287977
0.558,0.533413266385,-0.0470947287977
0.5582,0.495815855538,-0.0470947287977
0.5584,0.495815855538,-0.0470947287977
0.5586,0.458218444692,-0.0470947287977
0.5588,0.420621033845,-0.0470947287977
0.559,0.383023622999,-0.0470947287977
0.5592,0.307828801306,-0.0470947287977
0.5594,0.307828801306,-0.0470947287977
0.5596,0.307828801306,-0.0470947287977
0.5598,0.307828801306,-0.0470947287977
0.56,0.307828801306,-0.0470947287977
0.5602,0.270231390459,-0.0470947287977
0.5604,0.195036568766,-0.0470947287977
0.5606,0.195036568766,-0.0470947287977
0.5608,0.15743915792,-0.0470947287977
0.561,0.122191585251,-0.0470947287977
0.5612,0.0845941744046,-0.0470947287977
0.5614,0.0845941744046,-0.0470947287977
0.5616,0.0845941744046,-0.0470947287977
0.5618,0.0469967635581,-0.0470947287977
0.562,0.0469967635581,-0.0470947287977
0.5622,0.00939935271163,-0.0470947287977
0.5624,-0.0281980581349,-0.0470947287977
0.5626,-0.0657954689814,-0.0470947287977
0.5628,-0.103392879828,-0.0470947287977
0.563,-0.140990290674,-0.0470947287977
0.5632,-0.178587701521,-0.0470947287977
0.5634,-0.178587701521,-0.0470947287977
0.5636,-0.178587701521,-0.0470947287977
0.5638,-0.216185112367,-0.0470947287977
0.564,-0.29137993406,-0.0470947287977
0.5642,-0.29137993406,-0.0470947287977
0.5644,-0.328977344907,-0.0470947287977
0.5646,-0.328977344907,-0.0470947287977
0.5648,-0.364224917575,-0.0470947287977
0.565,-0.401822328422,-0.0470947287977
0.5652,-0.401822328422,-0.0470947287977
0.5654,-0.477017150115,-0.0470947287977
0.5656,-0.439419739268,-0.0470947287977
0.5658,-0.439419739268,-0.0470947287977
0.566,-0.477017150115,-0.0470947287977
0.5662,-0.514614560961,-0.0470947287977
0.5664,-0.552211971808,-0.0470947287977
0.5666,-0.552211971808,-0.0470947287977
0.5668,-0.589809382654,-0.0470947287977
0.567,-0.589809382654,-0.0470947287977
0.5672,-0.589809382654,-0.0470947287977
0.5674,-0.589809382654,-0.0470947287977
0.5676,-0.627406793501,-0.0470947287977
0.5678,-0.627406793501,-0.0470947287977
0.568,-0.627406793501,-0.0470947287977
0.5682,-0.627406793501,-0.0470947287977
0.5684,-0.665004204347,-0.0470947287977
0.5686,-0.665004204347,-0.0470947287977
0.5688,-0.665004204347,-0.0470947287977
0.569,-0.665004204347,-0.0470947287977
0.5692,-0.627406793501,-0.0470947287977
0.5694,-0.627406793501,-0.0470947287977
0.5696,-0.627406793501,-0.0470947287977
0.5698,-0.665004204347,-0.0470947287977
0.57,-0.702601615194,-0.0470947287977
0.5702,-0.665004204347,-0.0470947287977
0.5704,-0.665004204347,-0.0470947287977
0.5706,-0.665004204347,-0.0470947287977
0.5708,-0.665004204347,-0.0470947287977
0.571,-0.627406793501,-0.0470947287977
0.5712,-0.627406793501,-0.0470947287977
0.5714,-0.627406793501,-0.0470947287977
0.5716,-0.589809382654,-0.0470947287977
0.5718,-0.627406793501,-0.0470947287977
0.572,-0.589809382654,-0.0470947287977
0.5722,-0.589809382654,-0.0470947287977
0.5724,-0.589809382654,-0.0470947287977
0.5726,-0.514614560961,-0.0470947287977
0.5728,-0.477017150115,-0.0470947287977
0.573,-0.477017150115,-0.0470947287977
0.5732,-0.439419739268,-0.0470947287977
0.5734,-0.401822328422,-0.0470947287977
0.5736,-0.364224917575,-0.0470947287977
0.5738,-0.364224917575,-0.0470947287977
0.574,-0.364224917575,-0.0470947287977
0.5742,-0.328977344907,-0.0470947287977
0.5744,-0.328977344907,-0.0470947287977
0.5746,-0.29137993406,-0.0470947287977
0.5748,-0.253782523214,-0.0470947287977
0.575,-0.216185112367,-0.0470947287977
0.5752,-0.178587701521,-0.0470947287977
0.5754,-0.178587701521,-0.0470947287977
0.5756,-0.178587701521,-0.0470947287977
0.5758,-0.140990290674,-0.0470947287977
0.576,-0.140990290674,-0.0470947287977
0.5762,-0.103392879828,-0.0470947287977
0.5764,-0.0281980581349,-0.0470947287977
0.5766,-0.0281980581349,-0.0470947287977
0.5768,-0.0281980581349,-0.0470947287977
0.577,0.0469967635581,-0.0470947287977
0.5772,0.0845941744046,-0.0470947287977
0.5774,0.122191585251,-0.0470947287977
0.5776,0.15743915792,-0.0470947287977
0.5778,0.15743915792,-0.0470947287977
0.578,0.195036568766,-0.0470947287977
0.5782,0.232633979613,-0.0470947287977
0.5784,0.270231390459,-0.0470947287977
0.5786,0.307828801306,-0.0470947287977
0.5788,0.345426212152,-0.0470947287977
0.579,0.383023622999,-0.0470947287977
0.5792,0.383023622999,-0.0470947287977
0.5794,0.420621033845,-0.0470947287977
0.5796,0.420621033845,-0.0470947287977
0.5798,0.420621033845,-0.0470947287977
0.58,0.495815855538,-0.0470947287977
0.5802,0.495815855538,-0.0470947287977
0.5804,0.495815855538,-0.0470947287977
0.5806,0.571010677231,-0.0470947287977
0.5808,0.571010677231,-0.0470947287977
0.581,0.608608088078,-0.0470947287977
0.5812,0.608608088078,-0.0470947287977
0.5814,0.608608088078,-0.0470947287977
0.5816,0.608608088078,-0.0470947287977
0.5818,0.681453071593,-0.0470947287977
0.582,0.681453071593,-0.0470947287977
0.5822,0.719050482439,-0.0470947287977
0.5824,0.719050482439,-0.0470947287977
0.5826,0.719050482439,-0.0470947287977
0.5828,0.719050482439,-0.0470947287977
0.583,0.719050482439,-0.0470947287977
0.5832,0.756647893286,-0.0470947287977
0.5834,0.756647893286,-0.0470947287977
0.5836,0.756647893286,-0.0470947287977
0.5838,0.719050482439,-0.0470947287977
0.584,0.719050482439,-0.0470947287977
0.5842,0.794245304132,-0.0470947287977
0.5844,0.794245304132,-0.0470947287977
0.5846,0.756647893286,-0.0470947287977
0.5848,0.719050482439,-0.0470947287977
0.585,0.719050482439,-0.0470947287977
0.5852,0.681453071593,-0.0470947287977
0.5854,0.681453071593,-0.0470947287977
0.5856,0.681453071593,-0.0470947287977
0.5858,0.719050482439,-0.0470947287977
0.586,0.681453071593,-0.0470947287977
0.5862,0.681453071593,-0.0470947287977
0.5864,0.681453071593,-0.0470947287977
0.5866,0.646205498924,-0.0470947287977
0.5868,0.646205498924,-0.0470947287977
0.587,0.571010677231,-0.0470947287977
0.5872,0.571010677231,-0.0470947287977
0.5874,0.533413266385,-0.0470947287977
0.5876,0.533413266385,-0.0470947287977
0.5878,0.533413266385,-0.0470947287977
0.588,0.533413266385,-0.0470947287977
0.5882,0.533413266385,-0.0470947287977
0.5884,0.495815855538,-0.0470947287977
0.5886,0.420621033845,-0.0470947287977
0.5888,0.420621033845,-0.0470947287977
0.589,0.345426212152,-0.0470947287977
0.5892,0.345426212152,-0.0470947287977
0.5894,0.270231390459,-0.0470947287977
0.5896,0.270231390459,-0.0470947287977
0.5898,0.270231390459,-0.0470947287977
0.59,0.270231390459,-0.0470947287977
0.5902,0.270231390459,-0.0470947287977
0.5904,0.195036568766,-0.0470947287977
0.5906,0.122191585251,-0.0470947287977
0.5908,0.0845941744046,-0.0470947287977
0.591,0.0469967635581,-0.0470947287977
0.5912,0.00939935271163,-0.0470947287977
0.5914,0.00939935271163,-0.0470947287977
0.5916,-0.0281980581349,-0.0470947287977
0.5918,-0.0657954689814,-0.0470947287977
0.592,-0.103392879828,-0.0470947287977
0.5922,-0.140990290674,-0.0470947287977
0.5924,-0.178587701521,-0.0470947287977
0.5926,-0.216185112367,-0.0470947287977
0.5928,-0.253782523214,-0.0470947287977
0.593,-0.328977344907,-0.0470947287977
0.5932,-0.328977344907,-0.0470947287977
0.5934,-0.328977344907,-0.0470947287977
0.5936,-0.328977344907,-0.0470947287977
0.5938,-0.364224917575,-0.0470947287977
0.594,-0.401822328422,-0.0470947287977
0.5942,-0.477017150115,-0.0470947287977
0.5944,-0.514614560961,-0.0470947287977
0.5946,-0.514614560961,-0.0470947287977
0.5948,-0.514614560961,-0.0470947287977
0.595,-0.514614560961,-0.0470947287977
0.5952,-0.552211971808,-0.0470947287977
0.5954,-0.589809382654,-0.0470947287977
0.5956,-0.589809382654,-0.0470947287977
0.5958,-0.627406793501,-0.0470947287977
0.596,-0.627406793501,-0.0470947287977
0.5962,-0.665004204347,-0.0470947287977
0.5964,-0.702601615194,-0.0470947287977
0.5966,-0.702601615194,-0.0470947287977
0.5968,-0.740199026041,-0.0470947287977
0.597,-0.702601615194,-0.0470947287977
0.5972,-0.702601615194,-0.0470947287977
0.5974,-0.740199026041,-0.0470947287977
0.5976,-0.740199026041,-0.0470947287977
0.5978,-0.777796436887,-0.0470947287977
0.598,-0.777796436887,-0.0470947287977
0.5982,-0.777796436887,-0.0470947287977
0.5984,-0.777796436887,-0.0470947287977
0.5986,-0.777796436887,-0.0470947287977
0.5988,-0.777796436887,-0.0470947287977
0.599,-0.777796436887,-0.0470947287977
0.5992,-0.777796436887,-0.0470947287977
0.5994,-0.740199026041,-0.0470947287977
0.5996,-0.740199026041,-0.0470947287977
0.5998,-0.740199026041,-0.0470947287977
0.6,-0.777796436887,-0.0470947287977
0.6002,-0.777796436887,-0.0470947287977
0.6004,-0.777796436887,-0.0470947287977
0.6006,-0.702601615194,-0.0470947287977
0.6008,-0.665004204347,-0.0470947287977
0.601,-0.665004204347,-0.0470947287977
0.6012,-0.627406793501,-0.0470947287977
0.6014,-0.627406793501,-0.0470947287977
0.6016,-0.627406793501,-0.0470947287977
0.6018,-0.627406793501,-0.0470947287977
0.602,-0.627406793501,-0.0470947287977
0.6022,-0.627406793501,-0.0470947287977
0.6024,-0.627406793501,-0.0470947287977
0.6026,-0.589809382654,-0.0470947287977
0.6028,-0.552211971808,-0.0470947287977
0.603,-0.477017150115,-0.0470947287977
0.6032,-0.439419739268,-0.0470947287977
0.6034,-0.439419739268,-0.0470947287977
0.6036,-0.401822328422,-0.0470947287977
0.6038,-0.401822328422,-0.0470947287977
0.604,-0.364224917575,-0.0470947287977
0.6042,-0.328977344907,-0.0470947287977
0.6044,-0.29137993406,-0.0470947287977
0.6046,-0.216185112367,-0.0470947287977
0.6048,-0.216185112367,-0.0470947287977
0.605,-0.178587701521,-0.0470947287977
0.6052,-0.140990290674,-0.0470947287977
0.6054,-0.103392879828,-0.0470947287977
0.6056,-0.103392879828,-0.0470947287977
0.6058,-0.0657954689814,-0.0470947287977
0.606,-0.0657954689814,-0.0470947287977
0.6062,-0.0281980581349,-0.0470947287977
0.6064,0.0469967635581,-0.0470947287977
0.6066,0.0845941744046,-0.0470947287977
0.6068,0.122191585251,-0.0470947287977
0.607,0.122191585251,-0.0470947287977
0.6072,0.15743915792,-0.0470947287977
0.6074,0.195036568766,-0.0470947287977
0.6076,0.232633979613,-0.0470947287977
0.6078,0.232633979613,-0.0470947287977
0.608,0.270231390459,-0.0470947287977
0.6082,0.307828801306,-0.0470947287977
0.6084,0.307828801306,-0.0470947287977
0.6086,0.383023622999,-0.0470947287977
0.6088,0.420621033845,-0.0470947287977
0.609,0.458218444692,-0.0470947287977
0.6092,0.458218444692,-0.0470947287977
0.6094,0.495815855538,-0.0470947287977
0.6096,0.495815855538,-0.0470947287977
0.6098,0.533413266385,-0.0470947287977
0.61,0.571010677231,-0.0470947287977
0.6102,0.608608088078,-0.0470947287977
0.6104,0.608608088078,-0.0470947287977
0.6106,0.608608088078,-0.0470947287977
0.6108,0.646205498924,-0.0470947287977
0.611,0.646205498924,-0.0470947287977
0.6112,0.681453071593,-0.0470947287977
0.6114,0.719050482439,-0.0470947287977
0.6116,0.719050482439,-0.0470947287977
0.6118,0.719050482439,-0.0470947287977
0.612,0.756647893286,-0.0470947287977
0.6122,0.831842714979,-0.0470947287977
0.6124,0.831842714979,-0.0470947287977
0.6126,0.831842714979,-0.0470947287977
0.6128,0.831842714979,-0.0470947287977
0.613,0.794245304132,-0.0470947287977
0.6132,0.794245304132,-0.0470947287977
0.6134,0.794245304132,-0.0470947287977
0.6136,0.831842714979,-0.0470947287977
0.6138,0.831842714979,-0.0470947287977
0.614,0.831842714979,-0.0470947287977
0.6142,0.831842714979,-0.0470947287977
0.6144,0.794245304132,-0.0470947287977
0.6146,0.794245304132,-0.0470947287977
0.6148,0.794245304132,-0.0470947287977
0.615,0.756647893286,-0.0470947287977
0.6152,0.719050482439,-0.0470947287977
0.6154,0.719050482439,-0.0470947287977
0.6156,0.719050482439,-0.0470947287977
0.6158,0.756647893286,-0.0470947287977
0.616,0.719050482439,-0.0470947287977
0.6162,0.719050482439,-0.0470947287977
0.6164,0.681453071593,-0.0470947287977
0.6166,0.681453071593,-0.0470947287977
0.6168,0.646205498924,-0.0470947287977
0.617,0.608608088078,-0.0470947287977
0.6172,0.608608088078,-0.0470947287977
0.6174,0.571010677231,-0.0470947287977
0.6176,0.571010677231,-0.0470947287977
0.6178,0.533413266385,-0.0470947287977
0.618,0.533413266385,-0.0470947287977
0.6182,0.533413266385,-0.0470947287977
0.6184,0.495815855538,-0.0470947287977
0.6186,0.420621033845,-0.0470947287977
0.6188,0.345426212152,-0.0470947287977
0.619,0.345426212152,-0.0470947287977
0.6192,0.307828801306,-0.0470947287977
0.6194,0.307828801306,-0.0470947287977
0.6196,0.270231390459,-0.0470947287977
0.6198,0.232633979613,-0.0470947287977
0.62,0.195036568766,-0.0470947287977
0.6202,0.122191585251,-0.0470947287977
0.6204,0.122191585251,-0.0470947287977
0.6206,0.0845941744046,-0.0470947287977
0.6208,0.00939935271163,-0.0470947287977
0.621,0.00939935271163,-0.0470947287977
0.6212,-0.0281980581349,-0.0470947287977
0.6214,-0.0281980581349,-0.0470947287977
0.6216,-0.0657954689814,-0.0470947287977
0.6218,-0.0657954689814,-0.0470947287977
0.622,-0.103392879828,-0.0470947287977
0.6222,-0.178587701521,-0.0470947287977
0.6224,-0.216185112367,-0.0470947287977
0.6226,-0.29137993406,-0.0470947287977
0.6228,-0.29137993406,-0.0470947287977
0.623,-0.29137993406,-0.0470947287977
0.6232,-0.328977344907,-0.0470947287977
0.6234,-0.364224917575,-0.0470947287977
0.6236,-0.401822328422,-0.0470947287977
0.6238,-0.401822328422,-0.0470947287977
0.624,-0.439419739268,-0.0470947287977
0.6242,-0.477017150115,-0.0470947287977
0.6244,-0.514614560961,-0.0470947287977
0.6246,-0.514614560961,-0.0470947287977
0.6248,-0.552211971808,-0.0470947287977
0.625,-0.589809382654,-0.0470947287977
0.6252,-0.589809382654,-0.0470947287977
0.6254,-0.589809382654,-0.0470947287977
0.6256,-0.627406793501,-0.0470947287977
0.6258,-0.665004204347,-0.0470947287977
0.626,-0.702601615194,-0.0470947287977
0.6262,-0.777796436887,-0.0470947287977
0.6264,-0.777796436887,-0.0470947287977
0.6266,-0.777796436887,-0.0470947287977
0.6268,-0.777796436887,-0.0470947287977
0.627,-0.777796436887,-0.0470947287977
0.6272,-0.777796436887,-0.0470947287977
0.6274,-0.777796436887,-0.0470947287977
0.6276,-0.777796436887,-0.0470947287977
0.6278,-0.777796436887,-0.0470947287977
0.628,-0.815393847734,-0.0470947287977
0.6282,-0.815393847734,-0.0470947287977
0.6284,-0.850641420402,-0.0470947287977
0.6286,-0.815393847734,-0.0470947287977
0.6288,-0.815393847734,-0.0470947287977
0.629,-0.777796436887,-0.0470947287977
0.6292,-0.777796436887,-0.0470947287977
0.6294,-0.777796436887,-0.0470947287977
0.6296,-0.777796436887,-0.0470947287977
0.6298,-0.777796436887,-0.0470947287977
0.63,-0.815393847734,-0.0470947287977
0.6302,-0.815393847734,-0.0470947287977
0.6304,-0.777796436887,-0.0470947287977
0.6306,-0.777796436887,-0.0470947287977
0.6308,-0.777796436887,-0.0470947287977
0.631,-0.702601615194,-0.0470947287977
0.6312,-0.665004204347,-0.0470947287977
0.6314,-0.665004204347,-0.0470947287977
0.6316,-0.665004204347,-0.0470947287977
0.6318,-0.665004204347,-0.0470947287977
0.632,-0.665004204347,-0.0470947287977
0.6322,-0.627406793501,-0.0470947287977
0.6324,-0.589809382654,-0.0470947287977
0.6326,-0.552211971808,-0.0470947287977
0.6328,-0.514614560961,-0.0470947287977
0.633,-0.514614560961,-0.0470947287977
0.6332,-0.477017150115,-0.0470947287977
0.6334,-0.401822328422,-0.0470947287977
0.6336,-0.401822328422,-0.0470947287977
0.6338,-0.401822328422,-0.0470947287977
0.634,-0.364224917575,-0.0470947287977
0.6342,-0.328977344907,-0.0470947287977
0.6344,-0.29137993406,-0.0470947287977
0.6346,-0.216185112367,-0.0470947287977
0.6348,-0.178587701521,-0.0470947287977
0.635,-0.178587701521,-0.0470947287977
0.6352,-0.178587701521,-0.0470947287977
0.6354,-0.103392879828,-0.0470947287977
0.6356,-0.103392879828,-0.0470947287977
0.6358,-0.0657954689814,-0.0470947287977
0.636,-0.0281980581349,-0.0470947287977
0.6362,-0.0281980581349,-0.0470947287977
0.6364,0.0469967635581,-0.0470947287977
0.6366,0.0845941744046,-0.0470947287977
0.6368,0.122191585251,-0.0470947287977
0.637,0.15743915792,-0.0470947287977
0.6372,0.232633979613,-0.0470947287977
0.6374,0.195036568766,-0.0470947287977
0.6376,0.232633979613,-0.0470947287977
0.6378,0.232633979613,-0.0470947287977
0.638,0.307828801306,-0.0470947287977
0.6382,0.383023622999,-0.0470947287977
0.6384,0.383023622999,-0.0470947287977
0.6386,0.458218444692,-0.0470947287977
0.6388,0.458218444692,-0.0470947287977
0.639,0.495815855538,-0.0470947287977
0.6392,0.533413266385,-0.0470947287977
0.6394,0.533413266385,-0.0470947287977
0.6396,0.571010677231,-0.0470947287977
0.6398,0.571010677231,-0.0470947287977
0.64,0.571010677231,-0.0470947287977
0.6402,0.608608088078,-0.0470947287977
0.6404,0.681453071593,-0.0470947287977
0.6406,0.681453071593,-0.0470947287977
0.6408,0.681453071593,-0.0470947287977
0.641,0.681453071593,-0.0470947287977
0.6412,0.681453071593,-0.0470947287977
0.6414,0.681453071593,-0.0470947287977
0.6416,0.719050482439,-0.0470947287977
0.6418,0.719050482439,-0.0470947287977
0.642,0.756647893286,-0.0470947287977
0.6422,0.794245304132,-0.0470947287977
0.6424,0.794245304132,-0.0470947287977
0.6426,0.794245304132,-0.0470947287977
0.6428,0.794245304132,-0.0470947287977
0.643,0.794245304132,-0.0470947287977
0.6432,0.794245304132,-0.0470947287977
0.6434,0.794245304132,-0.0470947287977
0.6436,0.794245304132,-0.0470947287977
0.6438,0.831842714979,-0.0470947287977
0.644,0.831842714979,-0.0470947287977
0.6442,0.869440125825,-0.0470947287977
0.6444,0.831842714979,-0.0470947287977
0.6446,0.794245304132,-0.0470947287977
0.6448,0.756647893286,-0.0470947287977
0.645,0.794245304132,-0.0470947287977
0.6452,0.794245304132,-0.0470947287977
0.6454,0.794245304132,-0.0470947287977
0.6456,0.756647893286,-0.0470947287977
0.6458,0.756647893286,-0.0470947287977
0.646,0.719050482439,-0.0470947287977
0.6462,0.719050482439,-0.0470947287977
0.6464,0.719050482439,-0.0470947287977
0.6466,0.681453071593,-0.0470947287977
0.6468,0.608608088078,-0.0470947287977
0.647,0.571010677231,-0.0470947287977
0.6472,0.571010677231,-0.0470947287977
0.6474,0.571010677231,-0.0470947287977
0.6476,0.571010677231,-0.0470947287977
0.6478,0.533413266385,-0.0470947287977
0.648,0.495815855538,-0.0470947287977
0.6482,0.420621033845,-0.0470947287977
0.6484,0.420621033845,-0.0470947287977
0.6486,0.383023622999,-0.0470947287977
0.6488,0.383023622999,-0.0470947287977
0.649,0.307828801306,-0.0470947287977
0.6492,0.307828801306,-0.0470947287977
0.6494,0.307828801306,-0.0470947287977
0.6496,0.270231390459,-0.0470947287977
0.6498,0.270231390459,-0.0470947287977
0.65,0.232633979613,-0.0470947287977
0.6502,0.15743915792,-0.0470947287977
0.6504,0.122191585251,-0.0470947287977
0.6506,0.0845941744046,-0.0470947287977
0.6508,0.0845941744046,-0.0470947287977
0.651,0.0845941744046,-0.0470947287977
0.6512,0.0845941744046,-0.0470947287977
0.6514,0.00939935271163,-0.0470947287977
0.6516,-0.0281980581349,-0.0470947287977
0.6518,-0.0657954689814,-0.0470947287977
0.652,-0.103392879828,-0.0470947287977
0.6522,-0.178587701521,-0.0470947287977
0.6524,-0.253782523214,-0.0470947287977
0.6526,-0.29137993406,-0.0470947287977
0.6528,-0.29137993406,-0.0470947287977
0.653,-0.328977344907,-0.0470947287977
0.6532,-0.328977344907,-0.0470947287977
0.6534,-0.328977344907,-0.0470947287977
0.6536,-0.401822328422,-0.0470947287977
0.6538,-0.477017150115,-0.0470947287977
0.654,-0.514614560961,-0.0470947287977
0.6542,-0.514614560961,-0.0470947287977
0.6544,-0.552211971808,-0.0470947287977
0.6546,-0.514614560961,-0.0470947287977
0.6548,-0.589809382654,-0.0470947287977
0.655,-0.627406793501,-0.0470947287977
0.6552,-0.589809382654,-0.0470947287977
0.6554,-0.589809382654,-0.0470947287977
0.6556,-0.627406793501,-0.0470947287977
0.6558,-0.627406793501,-0.0470947287977
0.656,-0.665004204347,-0.0470947287977
0.6562,-0.702601615194,-0.0470947287977
0.6564,-0.702601615194,-0.0470947287977
0.6566,-0.702601615194,-0.0470947287977
0.6568,-0.702601615194,-0.0470947287977
0.657,-0.702601615194,-0.0470947287977
0.6572,-0.740199026041,-0.0470947287977
0.6574,-0.777796436887,-0.0470947287977
0.6576,-0.777796436887,-0.0470947287977
0.6578,-0.777796436887,-0.0470947287977
0.658,-0.815393847734,-0.0470947287977
0.6582,-0.850641420402,-0.0470947287977
0.6584,-0.888238831249,-0.0470947287977
0.6586,-0.850641420402,-0.0470947287977
0.6588,-0.850641420402,-0.0470947287977
0.659,-0.850641420402,-0.0470947287977
0.6592,-0.850641420402,-0.0470947287977
0.6594,-0.815393847734,-0.0470947287977
0.6596,-0.850641420402,-0.0470947287977
0.6598,-0.815393847734,-0.0470947287977
0.66,-0.815393847734,-0.0470947287977
0.6602,-0.815393847734,-0.0470947287977
0.6604,-0.777796436887,-0.0470947287977
0.6606,-0.702601615194,-0.0470947287977
0.6608,-0.702601615194,-0.0470947287977
0.661,-0.665004204347,-0.0470947287977
0.6612,-0.665004204347,-0.0470947287977
0.6614,-0.627406793501,-0.0470947287977
0.6616,-0.627406793501,-0.0470947287977
0.6618,-0.627406793501,-0.0470947287977
0.662,-0.627406793501,-0.0470947287977
0.6622,-0.589809382654,-0.0470947287977
0.6624,-0.514614560961,-0.0470947287977
0.6626,-0.477017150115,-0.0470947287977
0.6628,-0.477017150115,-0.0470947287977
0.663,-0.477017150115,-0.0470947287977
0.6632,-0.477017150115,-0.0470947287977
0.6634,-0.477017150115,-0.0470947287977
0.6636,-0.439419739268,-0.0470947287977
0.6638,-0.401822328422,-0.0470947287977
0.664,-0.364224917575,-0.0470947287977
0.6642,-0.328977344907,-0.0470947287977
0.6644,-0.328977344907,-0.0470947287977
0.6646,-0.29137993406,-0.0470947287977
0.6648,-0.216185112367,-0.0470947287977
0.665,-0.178587701521,-0.0470947287977
0.6652,-0.178587701521,-0.0470947287977
0.6654,-0.140990290674,-0.0470947287977
0.6656,-0.140990290674,-0.0470947287977
0.6658,-0.0657954689814,-0.0470947287977
0.666,-0.0281980581349,-0.0470947287977
0.6662,0.0469967635581,-0.0470947287977
0.6664,0.0845941744046,-0.0470947287977
0.6666,0.122191585251,-0.0470947287977
0.6668,0.122191585251,-0.0470947287977
0.667,0.15743915792,-0.0470947287977
0.6672,0.195036568766,-0.0470947287977
0.6674,0.232633979613,-0.0470947287977
0.6676,0.270231390459,-0.0470947287977
0.6678,0.270231390459,-0.0470947287977
0.668,0.270231390459,-0.0470947287977
0.6682,0.383023622999,-0.0470947287977
0.6684,0.420621033845,-0.0470947287977
0.6686,0.420621033845,-0.0470947287977
0.6688,0.420621033845,-0.0470947287977
0.669,0.420621033845,-0.0470947287977
0.6692,0.420621033845,-0.0470947287977
0.6694,0.458218444692,-0.0470947287977
0.6696,0.495815855538,-0.0470947287977
0.6698,0.533413266385,-0.0470947287977
0.67,0.571010677231,-0.0470947287977
0.6702,0.608608088078,-0.0470947287977
0.6704,0.608608088078,-0.0470947287977
0.6706,0.646205498924,-0.0470947287977
0.6708,0.646205498924,-0.0470947287977
0.671,0.681453071593,-0.0470947287977
0.6712,0.681453071593,-0.0470947287977
0.6714,0.681453071593,-0.0470947287977
0.6716,0.681453071593,-0.0470947287977
0.6718,0.719050482439,-0.0470947287977
0.672,0.794245304132,-0.0470947287977
0.6722,0.794245304132,-0.0470947287977
0.6724,0.794245304132,-0.0470947287977
0.6726,0.794245304132,-0.0470947287977
0.6728,0.756647893286,-0.0470947287977
0.673,0.794245304132,-0.0470947287977
0.6732,0.794245304132,-0.0470947287977
0.6734,0.794245304132,-0.0470947287977
0.6736,0.794245304132,-0.0470947287977
0.6738,0.794245304132,-0.0470947287977
0.674,0.794245304132,-0.0470947287977
0.6742,0.794245304132,-0.0470947287977
0.6744,0.794245304132,-0.0470947287977
0.6746,0.794245304132,-0.0470947287977
0.6748,0.719050482439,-0.0470947287977
0.675,0.681453071593,-0.0470947287977
0.6752,0.681453071593,-0.0470947287977
0.6754,0.681453071593,-0.0470947287977
0.6756,0.681453071593,-0.0470947287977
0.6758,0.719050482439,-0.0470947287977
0.676,0.681453071593,-0.0470947287977
0.6762,0.646205498924,-0.0470947287977
0.6764,0.646205498924,-0.0470947287977
0.6766,0.608608088078,-0.0470947287977
0.6768,0.571010677231,-0.0470947287977
0.677,0.571010677231,-0.0470947287977
0.6772,0.571010677231,-0.0470947287977
0.6774,0.571010677231,-0.0470947287977
0.6776,0.571010677231,-0.0470947287977
0.6778,0.571010677231,-0.0470947287977
0.678,0.571010677231,-0.0470947287977
0.6782,0.495815855538,-0.0470947287977
0.6784,0.458218444692,-0.0470947287977
0.6786,0.420621033845,-0.0470947287977
0.6788,0.383023622999,-0.0470947287977
0.679,0.383023622999,-0.0470947287977
0.6792,0.383023622999,-0.0470947287977
0.6794,0.345426212152,-0.0470947287977
0.6796,0.307828801306,-0.0470947287977
0.6798,0.232633979613,-0.0470947287977
0.68,0.195036568766,-0.0470947287977
0.6802,0.15743915792,-0.0470947287977
0.6804,0.0845941744046,-0.0470947287977
0.6806,0.00939935271163,-0.0470947287977
0.6808,-0.0281980581349,-0.0470947287977
0.681,-0.0281980581349,-0.0470947287977
0.6812,-0.0281980581349,-0.0470947287977
0.6814,-0.0281980581349,-0.0470947287977
0.6816,-0.0657954689814,-0.0470947287977
0.6818,-0.0657954689814,-0.0470947287977
0.682,-0.140990290674,-0.0470947287977
0.6822,-0.178587701521,-0.0470947287977
0.6824,-0.178587701521,-0.0470947287977
0.6826,-0.216185112367,-0.0470947287977
0.6828,-0.216185112367,-0.0470947287977
0.683,-0.216185112367,-0.0470947287977
0.6832,-0.253782523214,-0.0470947287977
0.6834,-0.216185112367,-0.0470947287977
0.6836,-0.253782523214,-0.0470947287977
0.6838,-0.328977344907,-0.0470947287977
0.684,-0.364224917575,-0.0470947287977
0.6842,-0.401822328422,-0.0470947287977
0.6844,-0.477017150115,-0.0470947287977
0.6846,-0.514614560961,-0.0470947287977
0.6848,-0.477017150115,-0.0470947287977
0.685,-0.514614560961,-0.0470947287977
0.6852,-0.589809382654,-0.0470947287977
0.6854,-0.589809382654,-0.0470947287977
0.6856,-0.627406793501,-0.0470947287977
0.6858,-0.665004204347,-0.0470947287977
0.686,-0.702601615194,-0.0470947287977
0.6862,-0.740199026041,-0.0470947287977
0.6864,-0.777796436887,-0.0470947287977
0.6866,-0.777796436887,-0.0470947287977
0.6868,-0.777796436887,-0.0470947287977
0.687,-0.777796436887,-0.0470947287977
0.6872,-0.740199026041,-0.0470947287977
0.6874,-0.777796436887,-0.0470947287977
0.6876,-0.777796436887,-0.0470947287977
0.6878,-0.777796436887,-0.0470947287977
0.688,-0.777796436887,-0.0470947287977
0.6882,-0.777796436887,-0.0470947287977
0.6884,-0.740199026041,-0.0470947287977
0.6886,-0.702601615194,-0.0470947287977
0.6888,-0.740199026041,-0.0470947287977
0.689,-0.702601615194,-0.0470947287977
0.6892,-0.702601615194,-0.0470947287977
0.6894,-0.702601615194,-0.0470947287977
0.6896,-0.702601615194,-0.0470947287977
0.6898,-0.702601615194,-0.0470947287977
0.69,-0.740199026041,-0.0470947287977
0.6902,-0.777796436887,-0.0470947287977
0.6904,-0.702601615194,-0.0470947287977
0.6906,-0.702601615194,-0.0470947287977
0.6908,-0.665004204347,-0.0470947287977
0.691,-0.665004204347,-0.0470947287977
0.6912,-0.702601615194,-0.0470947287977
0.6914,-0.702601615194,-0.0470947287977
0.6916,-0.702601615194,-0.0470947287977
0.6918,-0.665004204347,-0.0470947287977
0.692,-0.665004204347,-0.0470947287977
0.6922,-0.627406793501,-0.0470947287977
0.6924,-0.627406793501,-0.0470947287977
0.6926,-0.589809382654,-0.0470947287977
0.6928,-0.514614560961,-0.0470947287977
0.693,-0.477017150115,-0.0470947287977
0.6932,-0.477017150115,-0.0470947287977
0.6934,-0.439419739268,-0.0470947287977
0.6936,-0.401822328422,-0.0470947287977
0.6938,-0.401822328422,-0.0470947287977
0.694,-0.328977344907,-0.0470947287977
0.6942,-0.253782523214,-0.0470947287977
0.6944,-0.216185112367,-0.0470947287977
0.6946,-0.216185112367,-0.0470947287977
0.6948,-0.178587701521,-0.0470947287977
0.695,-0.140990290674,-0.0470947287977
0.6952,-0.140990290674,-0.0470947287977
0.6954,-0.103392879828,-0.0470947287977
0.6956,-0.0657954689814,-0.0470947287977
0.6958,-0.0657954689814,-0.0470947287977
0.696,-0.0281980581349,-0.0470947287977
0.6962,-0.0281980581349,-0.0470947287977
0.6964,0.0469967635581,-0.0470947287977
0.6966,0.0469967635581,-0.0470947287977
0.6968,0.0469967635581,-0.0470947287977
0.697,0.0845941744046,-0.0470947287977
0.6972,0.0845941744046,-0.0470947287977
0.6974,0.0845941744046,-0.0470947287977
0.6976,0.15743915792,-0.0470947287977
0.6978,0.195036568766,-0.0470947287977
0.698,0.232633979613,-0.0470947287977
0.6982,0.270231390459,-0.0470947287977
0.6984,0.307828801306,-0.0470947287977
0.6986,0.345426212152,-0.0470947287977
0.6988,0.383023622999,-0.0470947287977
0.699,0.420621033845,-0.0470947287977
0.6992,0.458218444692,-0.0470947287977
0.6994,0.458218444692,-0.0470947287977
0.6996,0.533413266385,-0.0470947287977
0.6998,0.571010677231,-0.0470947287977
0.7,0.608608088078,-0.0470947287977
0.7002,0.608608088078,-0.0470947287977
0.7004,0.681453071593,-0.0470947287977
0.7006,0.646205498924,-0.0470947287977
0.7008,0.646205498924,-0.0470947287977
0.701,0.646205498924,-0.0470947287977
0.7012,0.646205498924,-0.0470947287977
0.7014,0.681453071593,-0.0470947287977
0.7016,0.681453071593,-0.0470947287977
0.7018,0.681453071593,-0.0470947287977
0.702,0.681453071593,-0.0470947287977
0.7022,0.681453071593,-0.0470947287977
0.7024,0.681453071593,-0.0470947287977
0.7026,0.681453071593,-0.0470947287977
0.7028,0.681453071593,-0.0470947287977
0.703,0.646205498924,-0.0470947287977
0.7032,0.681453071593,-0.0470947287977
0.7034,0.719050482439,-0.0470947287977
0.7036,0.719050482439,-0.0470947287977
0.7038,0.794245304132,-0.0470947287977
0.704,0.756647893286,-0.0470947287977
0.7042,0.756647893286,-0.0470947287977
0.7044,0.756647893286,-0.0470947287977
0.7046,0.794245304132,-0.0470947287977
0.7048,0.756647893286,-0.0470947287977
0.705,0.756647893286,-0.0470947287977
0.7052,0.756647893286,-0.0470947287977
0.7054,0.756647893286,-0.0470947287977
0.7056,0.756647893286,-0.0470947287977
0.7058,0.794245304132,-0.0470947287977
0.706,0.756647893286,-0.0470947287977
0.7062,0.719050482439,-0.0470947287977
0.7064,0.681453071593,-0.0470947287977
0.7066,0.646205498924,-0.0470947287977
0.7068,0.608608088078,-0.0470947287977
0.707,0.571010677231,-0.0470947287977
0.7072,0.571010677231,-0.0470947287977
0.7074,0.533413266385,-0.0470947287977
0.7076,0.533413266385,-0.0470947287977
0.7078,0.495815855538,-0.0470947287977
0.708,0.458218444692,-0.0470947287977
0.7082,0.420621033845,-0.0470947287977
0.7084,0.383023622999,-0.0470947287977
0.7086,0.383023622999,-0.0470947287977
0.7088,0.307828801306,-0.0470947287977
0.709,0.307828801306,-0.0470947287977
0.7092,0.307828801306,-0.0470947287977
0.7094,0.307828801306,-0.0470947287977
0.7096,0.270231390459,-0.0470947287977
0.7098,0.232633979613,-0.0470947287977
0.71,0.232633979613,-0.0470947287977
0.7102,0.195036568766,-0.0470947287977
0.7104,0.195036568766,-0.0470947287977
0.7106,0.15743915792,-0.0470947287977
0.7108,0.122191585251,-0.0470947287977
0.711,0.122191585251,-0.0470947287977
0.7112,0.0845941744046,-0.0470947287977
0.7114,0.0469967635581,-0.0470947287977
0.7116,0.0469967635581,-0.0470947287977
0.7118,0.00939935271163,-0.0470947287977
0.712,-0.0281980581349,-0.0470947287977
0.7122,-0.103392879828,-0.0470947287977
0.7124,-0.178587701521,-0.0470947287977
0.7126,-0.216185112367,-0.0470947287977
0.7128,-0.253782523214,-0.0470947287977
0.713,-0.29137993406,-0.0470947287977
0.7132,-0.29137993406,-0.0470947287977
0.7134,-0.328977344907,-0.0470947287977
0.7136,-0.364224917575,-0.0470947287977
0.7138,-0.364224917575,-0.0470947287977
0.714,-0.401822328422,-0.0470947287977
0.7142,-0.401822328422,-0.0470947287977
0.7144,-0.477017150115,-0.0470947287977
0.7146,-0.477017150115,-0.0470947287977
0.7148,-0.477017150115,-0.0470947287977
0.715,-0.514614560961,-0.0470947287977
0.7152,-0.477017150115,-0.0470947287977
0.7154,-0.477017150115,-0.0470947287977
0.7156,-0.477017150115,-0.0470947287977
0.7158,-0.514614560961,-0.0470947287977
0.716,-0.514614560961,-0.0470947287977
0.7162,-0.552211971808,-0.0470947287977
0.7164,-0.552211971808,-0.0470947287977
0.7166,-0.589809382654,-0.0470947287977
0.7168,-0.589809382654,-0.0470947287977
0.717,-0.627406793501,-0.0470947287977
0.7172,-0.627406793501,-0.0470947287977
0.7174,-0.627406793501,-0.0470947287977
0.7176,-0.665004204347,-0.0470947287977
0.7178,-0.702601615194,-0.0470947287977
0.718,-0.702601615194,-0.0470947287977
0.7182,-0.740199026041,-0.0470947287977
0.7184,-0.777796436887,-0.0470947287977
0.7186,-0.740199026041,-0.0470947287977
0.7188,-0.740199026041,-0.0470947287977
0.719,-0.777796436887,-0.0470947287977
0.7192,-0.777796436887,-0.0470947287977
0.7194,-0.777796436887,-0.0470947287977
0.7196,-0.777796436887,-0.0470947287977
0.7198,-0.702601615194,-0.0470947287977
0.72,-0.702601615194,-0.0470947287977
0.7202,-0.665004204347,-0.0470947287977
0.7204,-0.665004204347,-0.0470947287977
0.7206,-0.627406793501,-0.0470947287977
0.7208,-0.627406793501,-0.0470947287977
0.721,-0.589809382654,-0.0470947287977
0.7212,-0.589809382654,-0.0470947287977
0.7214,-0.552211971808,-0.0470947287977
0.7216,-0.552211971808,-0.0470947287977
0.7218,-0.552211971808,-0.0470947287977
0.722,-0.514614560961,-0.0470947287977
0.7222,-0.514614560961,-0.0470947287977
0.7224,-0.477017150115,-0.0470947287977
0.7226,-0.477017150115,-0.0470947287977
0.7228,-0.477017150115,-0.0470947287977
0.723,-0.477017150115,-0.0470947287977
0.7232,-0.477017150115,-0.0470947287977
0.7234,-0.477017150115,-0.0470947287977
0.7236,-0.439419739268,-0.0470947287977
0.7238,-0.439419739268,-0.0470947287977
0.724,-0.401822328422,-0.0470947287977
0.7242,-0.364224917575,-0.0470947287977
0.7244,-0.328977344907,-0.0470947287977
0.7246,-0.29137993406,-0.0470947287977
0.7248,-0.29137993406,-0.0470947287977
0.725,-0.29137993406,-0.0470947287977
0.7252,-0.253782523214,-0.0470947287977
0.7254,-0.178587701521,-0.0470947287977
0.7256,-0.178587701521,-0.0470947287977
0.7258,-0.0657954689814,-0.0470947287977
0.726,-0.0657954689814,-0.0470947287977
0.7262,-0.0281980581349,-0.0470947287977
0.7264,0.00939935271163,-0.0470947287977
0.7266,0.0469967635581,-0.0470947287977
0.7268,0.0845941744046,-0.0470947287977
0.727,0.0845941744046,-0.0470947287977
0.7272,0.122191585251,-0.0470947287977
0.7274,0.122191585251,-0.0470947287977
0.7276,0.15743915792,-0.0470947287977
0.7278,0.195036568766,-0.0470947287977
0.728,0.232633979613,-0.0470947287977
0.7282,0.270231390459,-0.0470947287977
0.7284,0.270231390459,-0.0470947287977
0.7286,0.270231390459,-0.0470947287977
0.7288,0.270231390459,-0.0470947287977
0.729,0.270231390459,-0.0470947287977
0.7292,0.270231390459,-0.0470947287977
0.7294,0.307828801306,-0.0470947287977
0.7296,0.345426212152,-0.0470947287977
0.7298,0.383023622999,-0.0470947287977
0.73,0.420621033845,-0.0470947287977
0.7302,0.420621033845,-0.0470947287977
0.7304,0.495815855538,-0.0470947287977
0.7306,0.495815855538,-0.0470947287977
0.7308,0.495815855538,-0.0470947287977
0.731,0.533413266385,-0.0470947287977
0.7312,0.571010677231,-0.0470947287977
0.7314,0.608608088078,-0.0470947287977
0.7316,0.608608088078,-0.0470947287977
0.7318,0.646205498924,-0.0470947287977
0.732,0.681453071593,-0.0470947287977
0.7322,0.681453071593,-0.0470947287977
0.7324,0.681453071593,-0.0470947287977
0.7326,0.608608088078,-0.0470947287977
0.7328,0.681453071593,-0.0470947287977
0.733,0.681453071593,-0.0470947287977
0.7332,0.681453071593,-0.0470947287977
0.7334,0.681453071593,-0.0470947287977
0.7336,0.681453071593,-0.0470947287977
0.7338,0.681453071593,-0.0470947287977
0.734,0.681453071593,-0.0470947287977
0.7342,0.681453071593,-0.0470947287977
0.7344,0.646205498924,-0.0470947287977
0.7346,0.608608088078,-0.0470947287977
0.7348,0.608608088078,-0.0470947287977
0.735,0.608608088078,-0.0470947287977
0.7352,0.608608088078,-0.0470947287977
0.7354,0.608608088078,-0.0470947287977
0.7356,0.571010677231,-0.0470947287977
0.7358,0.571010677231,-0.0470947287977
0.736,0.571010677231,-0.0470947287977
0.7362,0.571010677231,-0.0470947287977
0.7364,0.533413266385,-0.0470947287977
0.7366,0.533413266385,-0.0470947287977
0.7368,0.533413266385,-0.0470947287977
0.737,0.533413266385,-0.0470947287977
0.7372,0.533413266385,-0.0470947287977
0.7374,0.533413266385,-0.0470947287977
0.7376,0.533413266385,-0.0470947287977
0.7378,0.533413266385,-0.0470947287977
0.738,0.458218444692,-0.0470947287977
0.7382,0.458218444692,-0.0470947287977
0.7384,0.420621033845,-0.0470947287977
0.7386,0.420621033845,-0.0470947287977
0.7388,0.383023622999,-0.0470947287977
0.739,0.383023622999,-0.0470947287977
0.7392,0.345426212152,-0.0470947287977
0.7394,0.307828801306,-0.0470947287977
0.7396,0.270231390459,-0.0470947287977
0.7398,0.232633979613,-0.0470947287977
0.74,0.195036568766,-0.0470947287977
0.7402,0.122191585251,-0.0470947287977
0.7404,0.122191585251,-0.0470947287977
0.7406,0.0845941744046,-0.0470947287977
0.7408,0.0845941744046,-0.0470947287977
0.741,0.0845941744046,-0.0470947287977
0.7412,0.0469967635581,-0.0470947287977
0.7414,0.00939935271163,-0.0470947287977
0.7416,0.00939935271163,-0.0470947287977
0.7418,-0.0281980581349,-0.0470947287977
0.742,-0.0281980581349,-0.0470947287977
0.7422,-0.0657954689814,-0.0470947287977
0.7424,-0.0657954689814,-0.0470947287977
0.7426,-0.0657954689814,-0.0470947287977
0.7428,-0.103392879828,-0.0470947287977
0.743,-0.103392879828,-0.0470947287977
0.7432,-0.103392879828,-0.0470947287977
0.7434,-0.140990290674,-0.0470947287977
0.7436,-0.178587701521,-0.0470947287977
0.7438,-0.216185112367,-0.0470947287977
0.744,-0.29137993406,-0.0470947287977
0.7442,-0.328977344907,-0.0470947287977
0.7444,-0.328977344907,-0.0470947287977
0.7446,-0.364224917575,-0.0470947287977
0.7448,-0.364224917575,-0.0470947287977
0.745,-0.401822328422,-0.0470947287977
0.7452,-0.401822328422,-0.0470947287977
0.7454,-0.439419739268,-0.0470947287977
0.7456,-0.477017150115,-0.0470947287977
0.7458,-0.514614560961,-0.0470947287977
0.746,-0.514614560961,-0.0470947287977
0.7462,-0.514614560961,-0.0470947287977
0.7464,-0.514614560961,-0.0470947287977
0.7466,-0.477017150115,-0.0470947287977
0.7468,-0.514614560961,-0.0470947287977
0.747,-0.477017150115,-0.0470947287977
0.7472,-0.477017150115,-0.0470947287977
0.7474,-0.514614560961,-0.0470947287977
0.7476,-0.514614560961,-0.0470947287977
0.7478,-0.514614560961,-0.0470947287977
0.748,-0.514614560961,-0.0470947287977
0.7482,-0.514614560961,-0.0470947287977
0.7484,-0.552211971808,-0.0470947287977
0.7486,-0.514614560961,-0.0470947287977
0.7488,-0.552211971808,-0.0470947287977
0.749,-0.552211971808,-0.0470947287977
0.7492,-0.552211971808,-0.0470947287977
0.7494,-0.589809382654,-0.0470947287977
0.7496,-0.589809382654,-0.0470947287977
0.7498,-0.589809382654,-0.0470947287977
0.75,-0.589809382654,-0.0470947287977
0.7502,-0.552211971808,-0.0470947287977
0.7504,-0.589809382654,-0.0470947287977
0.7506,-0.589809382654,-0.0470947287977
0.7508,-0.552211971808,-0.0470947287977
0.751,-0.589809382654,-0.0470947287977
0.7512,-0.552211971808,-0.0470947287977
0.7514,-0.589809382654,-0.0470947287977
0.7516,-0.514614560961,-0.0470947287977
0.7518,-0.514614560961,-0.0470947287977
0.752,-0.477017150115,-0.0470947287977
0.7522,-0.477017150115,-0.0470947287977
0.7524,-0.439419739268,-0.0470947287977
0.7526,-0.401822328422,-0.0470947287977
0.7528,-0.364224917575,-0.0470947287977
0.753,-0.364224917575,-0.0470947287977
0.7532,-0.364224917575,-0.0470947287977
0.7534,-0.364224917575,-0.0470947287977
0.7536,-0.328977344907,-0.0470947287977
0.7538,-0.328977344907,-0.0470947287977
0.754,-0.29137993406,-0.0470947287977
0.7542,-0.29137993406,-0.0470947287977
0.7544,-0.253782523214,-0.0470947287977
0.7546,-0.253782523214,-0.0470947287977
0.7548,-0.253782523214,-0.0470947287977
0.755,-0.216185112367,-0.0470947287977
0.7552,-0.178587701521,-0.0470947287977
0.7554,-0.178587701521,-0.0470947287977
0.7556,-0.178587701521,-0.0470947287977
0.7558,-0.178587701521,-0.0470947287977
0.756,-0.103392879828,-0.0470947287977
0.7562,-0.0657954689814,-0.0470947287977
0.7564,-0.0657954689814,-0.0470947287977
0.7566,-0.0281980581349,-0.0470947287977
0.7568,-0.0281980581349,-0.0470947287977
0.757,-0.0281980581349,-0.0470947287977
0.7572,0.00939935271163,-0.0470947287977
0.7574,0.0845941744046,-0.0470947287977
0.7576,0.0845941744046,-0.0470947287977
0.7578,0.122191585251,-0.0470947287977
0.758,0.15743915792,-0.0470947287977
0.7582,0.195036568766,-0.0470947287977
0.7584,0.195036568766,-0.0470947287977
0.7586,0.232633979613,-0.0470947287977
0.7588,0.232633979613,-0.0470947287977
0.759,0.232633979613,-0.0470947287977
0.7592,0.270231390459,-0.0470947287977
0.7594,0.270231390459,-0.0470947287977
0.7596,0.307828801306,-0.0470947287977
0.7598,0.345426212152,-0.0470947287977
0.76,0.345426212152,-0.0470947287977
0.7602,0.345426212152,-0.0470947287977
0.7604,0.345426212152,-0.0470947287977
0.7606,0.345426212152,-0.0470947287977
0.7608,0.383023622999,-0.0470947287977
0.761,0.383023622999,-0.0470947287977
0.7612,0.383023622999,-0.0470947287977
0.7614,0.420621033845,-0.0470947287977
0.7616,0.420621033845,-0.0470947287977
0.7618,0.420621033845,-0.0470947287977
0.762,0.420621033845,-0.0470947287977
0.7622,0.420621033845,-0.0470947287977
0.7624,0.420621033845,-0.0470947287977
0.7626,0.420621033845,-0.0470947287977
0.7628,0.495815855538,-0.0470947287977
0.763,0.495815855538,-0.0470947287977
0.7632,0.533413266385,-0.0470947287977
0.7634,0.533413266385,-0.0470947287977
0.7636,0.533413266385,-0.0470947287977
0.7638,0.571010677231,-0.0470947287977
0.764,0.533413266385,-0.0470947287977
0.7642,0.533413266385,-0.0470947287977
0.7644,0.533413266385,-0.0470947287977
0.7646,0.533413266385,-0.0470947287977
0.7648,0.533413266385,-0.0470947287977
0.765,0.533413266385,-0.0470947287977
0.7652,0.533413266385,-0.0470947287977
0.7654,0.533413266385,-0.0470947287977
0.7656,0.533413266385,-0.0470947287977
0.7658,0.495815855538,-0.0470947287977
0.766,0.420621033845,-0.0470947287977
0.7662,0.420621033845,-0.0470947287977
0.7664,0.420621033845,-0.0470947287977
0.7666,0.420621033845,-0.0470947287977
0.7668,0.420621033845,-0.0470947287977
0.767,0.420621033845,-0.0470947287977
0.7672,0.420621033845,-0.0470947287977
0.7674,0.420621033845,-0.0470947287977
0.7676,0.383023622999,-0.0470947287977
0.7678,0.383023622999,-0.0470947287977
0.768,0.345426212152,-0.0470947287977
0.7682,0.345426212152,-0.0470947287977
0.7684,0.307828801306,-0.0470947287977
0.7686,0.307828801306,-0.0470947287977
0.7688,0.307828801306,-0.0470947287977
0.769,0.307828801306,-0.0470947287977
0.7692,0.307828801306,-0.0470947287977
0.7694,0.270231390459,-0.0470947287977
0.7696,0.270231390459,-0.0470947287977
0.7698,0.232633979613,-0.0470947287977
0.77,0.195036568766,-0.0470947287977
0.7702,0.195036568766,-0.0470947287977
0.7704,0.122191585251,-0.0470947287977
0.7706,0.122191585251,-0.0470947287977
0.7708,0.122191585251,-0.0470947287977
0.771,0.122191585251,-0.0470947287977
0.7712,0.0845941744046,-0.0470947287977
0.7714,0.0469967635581,-0.0470947287977
0.7716,-0.0281980581349,-0.0470947287977
0.7718,-0.0281980581349,-0.0470947287977
0.772,-0.0281980581349,-0.0470947287977
0.7722,-0.0657954689814,-0.0470947287977
0.7724,-0.0281980581349,-0.0470947287977
0.7726,-0.0657954689814,-0.0470947287977
0.7728,-0.0657954689814,-0.0470947287977
0.773,-0.103392879828,-0.0470947287977
0.7732,-0.103392879828,-0.0470947287977
0.7734,-0.140990290674,-0.0470947287977
0.7736,-0.178587701521,-0.0470947287977
0.7738,-0.178587701521,-0.0470947287977
0.774,-0.178587701521,-0.0470947287977
0.7742,-0.178587701521,-0.0470947287977
0.7744,-0.216185112367,-0.0470947287977
0.7746,-0.216185112367,-0.0470947287977
0.7748,-0.216185112367,-0.0470947287977
0.775,-0.253782523214,-0.0470947287977
0.7752,-0.328977344907,-0.0470947287977
0.7754,-0.328977344907,-0.0470947287977
0.7756,-0.328977344907,-0.0470947287977
0.7758,-0.328977344907,-0.0470947287977
0.776,-0.328977344907,-0.0470947287977
0.7762,-0.364224917575,-0.0470947287977
0.7764,-0.328977344907,-0.0470947287977
0.7766,-0.364224917575,-0.0470947287977
0.7768,-0.364224917575,-0.0470947287977
0.777,-0.401822328422,-0.0470947287977
0.7772,-0.364224917575,-0.0470947287977
0.7774,-0.401822328422,-0.0470947287977
0.7776,-0.401822328422,-0.0470947287977
0.7778,-0.401822328422,-0.0470947287977
0.778,-0.401822328422,-0.0470947287977
0.7782,-0.364224917575,-0.0470947287977
0.7784,-0.401822328422,-0.0470947287977
0.7786,-0.364224917575,-0.0470947287977
0.7788,-0.401822328422,-0.0470947287977
0.779,-0.401822328422,-0.0470947287977
0.7792,-0.439419739268,-0.0470947287977
0.7794,-0.401822328422,-0.0470947287977
0.7796,-0.439419739268,-0.0470947287977
0.7798,-0.401822328422,-0.0470947287977
0.78,-0.401822328422,-0.0470947287977
0.7802,-0.401822328422,-0.0470947287977
0.7804,-0.364224917575,-0.0470947287977
0.7806,-0.364224917575,-0.0470947287977
0.7808,-0.364224917575,-0.0470947287977
0.781,-0.364224917575,-0.0470947287977
0.7812,-0.364224917575,-0.0470947287977
0.7814,-0.364224917575,-0.0470947287977
0.7816,-0.328977344907,-0.0470947287977
0.7818,-0.364224917575,-0.0470947287977
0.782,-0.328977344907,-0.0470947287977
0.7822,-0.328977344907,-0.0470947287977
0.7824,-0.29137993406,-0.0470947287977
0.7826,-0.29137993406,-0.0470947287977
0.7828,-0.328977344907,-0.0470947287977
0.783,-0.29137993406,-0.0470947287977
0.7832,-0.29137993406,-0.0470947287977
0.7834,-0.29137993406,-0.0470947287977
0.7836,-0.29137993406,-0.0470947287977
0.7838,-0.253782523214,-0.0470947287977
0.784,-0.178587701521,-0.0470947287977
0.7842,-0.178587701521,-0.0470947287977
0.7844,-0.178587701521,-0.0470947287977
0.7846,-0.178587701521,-0.0470947287977
0.7848,-0.178587701521,-0.0470947287977
0.785,-0.140990290674,-0.0470947287977
0.7852,-0.140990290674,-0.0470947287977
0.7854,-0.103392879828,-0.0470947287977
0.7856,-0.0657954689814,-0.0470947287977
0.7858,-0.0657954689814,-0.0470947287977
0.786,-0.0281980581349,-0.0470947287977
0.7862,-0.0281980581349,-0.0470947287977
0.7864,-0.0281980581349,-0.0470947287977
0.7866,0.00939935271163,-0.0470947287977
0.7868,-0.0281980581349,-0.0470947287977
0.787,-0.0281980581349,-0.0470947287977
0.7872,0.00939935271163,-0.0470947287977
0.7874,0.0469967635581,-0.0470947287977
0.7876,0.0469967635581,-0.0470947287977
0.7878,0.0845941744046,-0.0470947287977
0.788,0.122191585251,-0.0470947287977
0.7882,0.122191585251,-0.0470947287977
0.7884,0.122191585251,-0.0470947287977
0.7886,0.122191585251,-0.0470947287977
0.7888,0.122191585251,-0.0470947287977
0.789,0.15743915792,-0.0470947287977
0.7892,0.195036568766,-0.0470947287977
0.7894,0.232633979613,-0.0470947287977
0.7896,0.232633979613,-0.0470947287977
0.7898,0.232633979613,-0.0470947287977
0.79,0.270231390459,-0.0470947287977
0.7902,0.270231390459,-0.0470947287977
0.7904,0.232633979613,-0.0470947287977
0.7906,0.270231390459,-0.0470947287977
0.7908,0.270231390459,-0.0470947287977
0.791,0.270231390459,-0.0470947287977
0.7912,0.307828801306,-0.0470947287977
0.7914,0.307828801306,-0.0470947287977
0.7916,0.345426212152,-0.0470947287977
0.7918,0.307828801306,-0.0470947287977
0.792,0.307828801306,-0.0470947287977
0.7922,0.307828801306,-0.0470947287977
0.7924,0.307828801306,-0.0470947287977
0.7926,0.307828801306,-0.0470947287977
0.7928,0.307828801306,-0.0470947287977
0.793,0.307828801306,-0.0470947287977
0.7932,0.345426212152,-0.0470947287977
0.7934,0.383023622999,-0.0470947287977
0.7936,0.383023622999,-0.0470947287977
0.7938,0.383023622999,-0.0470947287977
0.794,0.383023622999,-0.0470947287977
0.7942,0.345426212152,-0.0470947287977
0.7944,0.345426212152,-0.0470947287977
0.7946,0.307828801306,-0.0470947287977
0.7948,0.345426212152,-0.0470947287977
0.795,0.383023622999,-0.0470947287977
0.7952,0.345426212152,-0.0470947287977
0.7954,0.307828801306,-0.0470947287977
0.7956,0.307828801306,-0.0470947287977
0.7958,0.307828801306,-0.0470947287977
0.796,0.307828801306,-0.0470947287977
0.7962,0.270231390459,-0.0470947287977
0.7964,0.270231390459,-0.0470947287977
0.7966,0.270231390459,-0.0470947287977
0.7968,0.270231390459,-0.0470947287977
0.797,0.270231390459,-0.0470947287977
0.7972,0.270231390459,-0.0470947287977
0.7974,0.232633979613,-0.0470947287977
0.7976,0.232633979613,-0.0470947287977
0.7978,0.232633979613,-0.0470947287977
0.798,0.232633979613,-0.0470947287977
0.7982,0.232633979613,-0.0470947287977
0.7984,0.232633979613,-0.0470947287977
0.7986,0.232633979613,-0.0470947287977
0.7988,0.195036568766,-0.0470947287977
0.799,0.195036568766,-0.0470947287977
0.7992,0.195036568766,-0.0470947287977
0.7994,0.15743915792,-0.0470947287977
0.7996,0.122191585251,-0.0470947287977
0.7998,0.122191585251,-0.0470947287977
0.8,0.0845941744046,-0.0470947287977
0.8002,0.0845941744046,-0.0470947287977
0.8004,0.0845941744046,-0.0470947287977
0.8006,0.0845941744046,-0.0470947287977
0.8008,0.0845941744046,-0.0470947287977
0.801,0.0469967635581,-0.0470947287977
0.8012,0.00939935271163,-0.0470947287977
0.8014,-0.0281980581349,-0.0470947287977
0.8016,-0.0281980581349,-0.0470947287977
0.8018,-0.0281980581349,-0.0470947287977
0.802,-0.0281980581349,-0.0470947287977
0.8022,-0.0281980581349,-0.0470947287977
0.8024,-0.0281980581349,-0.0470947287977
0.8026,-0.0281980581349,-0.0470947287977
0.8028,-0.0657954689814,-0.0470947287977
0.803,-0.103392879828,-0.0470947287977
0.8032,-0.103392879828,-0.0470947287977
0.8034,-0.140990290674,-0.0470947287977
0.8036,-0.140990290674,-0.0470947287977
0.8038,-0.178587701521,-0.0470947287977
0.804,-0.178587701521,-0.0470947287977
0.8042,-0.178587701521,-0.0470947287977
0.8044,-0.178587701521,-0.0470947287977
0.8046,-0.178587701521,-0.0470947287977
0.8048,-0.178587701521,-0.0470947287977
0.805,-0.216185112367,-0.0470947287977
0.8052,-0.253782523214,-0.0470947287977
0.8054,-0.29137993406,-0.0470947287977
0.8056,-0.29137993406,-0.0470947287977
0.8058,-0.29137993406,-0.0470947287977
0.806,-0.29137993406,-0.0470947287977
0.8062,-0.253782523214,-0.0470947287977
0.8064,-0.253782523214,-0.0470947287977
0.8066,-0.216185112367,-0.0470947287977
0.8068,-0.253782523214,-0.0470947287977
0.807,-0.216185112367,-0.0470947287977
0.8072,-0.253782523214,-0.0470947287977
0.8074,-0.29137993406,-0.0470947287977
0.8076,-0.253782523214,-0.0470947287977
0.8078,-0.253782523214,-0.0470947287977
0.808,-0.216185112367,-0.0470947287977
0.8082,-0.216185112367,-0.0470947287977
0.8084,-0.216185112367,-0.0470947287977
0.8086,-0.216185112367,-0.0470947287977
0.8088,-0.253782523214,-0.0470947287977
0.809,-0.253782523214,-0.0470947287977
0.8092,-0.328977344907,-0.0470947287977
0.8094,-0.328977344907,-0.0470947287977
0.8096,-0.29137993406,-0.0470947287977
0.8098,-0.29137993406,-0.0470947287977
0.81,-0.29137993406,-0.0470947287977
0.8102,-0.253782523214,-0.0470947287977
0.8104,-0.253782523214,-0.0470947287977
0.8106,-0.253782523214,-0.0470947287977
0.8108,-0.253782523214,-0.0470947287977
0.811,-0.253782523214,-0.0470947287977
0.8112,-0.253782523214,-0.0470947287977
0.8114,-0.216185112367,-0.0470947287977
0.8116,-0.216185112367,-0.0470947287977
0.8118,-0.178587701521,-0.0470947287977
0.812,-0.178587701521,-0.0470947287977
0.8122,-0.178587701521,-0.0470947287977
0.8124,-0.140990290674,-0.0470947287977
0.8126,-0.140990290674,-0.0470947287977
0.8128,-0.140990290674,-0.0470947287977
0.813,-0.140990290674,-0.0470947287977
0.8132,-0.103392879828,-0.0470947287977
0.8134,-0.0657954689814,-0.0470947287977
0.8136,-0.0657954689814,-0.0470947287977
0.8138,-0.0657954689814,-0.0470947287977
0.814,-0.0281980581349,-0.0470947287977
0.8142,-0.0281980581349,-0.0470947287977
0.8144,-0.0281980581349,-0.0470947287977
0.8146,-0.0281980581349,-0.0470947287977
0.8148,-0.0281980581349,-0.0470947287977
0.815,-0.0281980581349,-0.0470947287977
0.8152,-0.0281980581349,-0.0470947287977
0.8154,0.00939935271163,-0.0470947287977
0.8156,0.00939935271163,-0.0470947287977
0.8158,0.00939935271163,-0.0470947287977
0.816,0.00939935271163,-0.0470947287977
0.8162,0.0469967635581,-0.0470947287977
0.8164,0.00939935271163,-0.0470947287977
0.8166,0.0469967635581,-0.0470947287977
0.8168,0.00939935271163,-0.0470947287977
0.817,0.00939935271163,-0.0470947287977
0.8172,0.0845941744046,-0.0470947287977
0.8174,0.0845941744046,-0.0470947287977
0.8176,0.122191585251,-0.0470947287977
0.8178,0.122191585251,-0.0470947287977
0.818,0.122191585251,-0.0470947287977
0.8182,0.122191585251,-0.0470947287977
0.8184,0.122191585251,-0.0470947287977
0.8186,0.15743915792,-0.0470947287977
0.8188,0.195036568766,-0.0470947287977
0.819,0.232633979613,-0.0470947287977
0.8192,0.232633979613,-0.0470947287977
0.8194,0.232633979613,-0.0470947287977
0.8196,0.232633979613,-0.0470947287977
0.8198,0.232633979613,-0.0470947287977
0.82,0.232633979613,-0.0470947287977
0.8202,0.232633979613,-0.0470947287977
0.8204,0.232633979613,-0.0470947287977
0.8206,0.195036568766,-0.0470947287977
0.8208,0.232633979613,-0.0470947287977
0.821,0.232633979613,-0.0470947287977
0.8212,0.232633979613,-0.0470947287977
0.8214,0.232633979613,-0.0470947287977
0.8216,0.232633979613,-0.0470947287977
0.8218,0.232633979613,-0.0470947287977
0.822,0.232633979613,-0.0470947287977
0.8222,0.232633979613,-0.0470947287977
0.8224,0.232633979613,-0.0470947287977
0.8226,0.232633979613,-0.0470947287977
0.8228,0.232633979613,-0.0470947287977
0.823,0.270231390459,-0.0470947287977
0.8232,0.270231390459,-0.0470947287977
0.8234,0.270231390459,-0.0470947287977
0.8236,0.270231390459,-0.0470947287977
0.8238,0.270231390459,-0.0470947287977
0.824,0.232633979613,-0.0470947287977
0.8242,0.232633979613,-0.0470947287977
0.8244,0.232633979613,-0.0470947287977
0.8246,0.232633979613,-0.0470947287977
0.8248,0.232633979613,-0.0470947287977
0.825,0.270231390459,-0.0470947287977
0.8252,0.232633979613,-0.0470947287977
0.8254,0.195036568766,-0.0470947287977
0.8256,0.195036568766,-0.0470947287977
0.8258,0.195036568766,-0.0470947287977
0.826,0.15743915792,-0.0470947287977
0.8262,0.15743915792,-0.0470947287977
0.8264,0.122191585251,-0.0470947287977
0.8266,0.122191585251,-0.0470947287977
0.8268,0.122191585251,-0.0470947287977
0.827,0.122191585251,-0.0470947287977
0.8272,0.122191585251,-0.0470947287977
0.8274,0.0845941744046,-0.0470947287977
0.8276,0.0845941744046,-0.0470947287977
0.8278,0.0845941744046,-0.0470947287977
0.828,0.0469967635581,-0.0470947287977
0.8282,0.0469967635581,-0.0470947287977
0.8284,0.0469967635581,-0.0470947287977
0.8286,0.0469967635581,-0.0470947287977
0.8288,0.0845941744046,-0.0470947287977
0.829,0.0469967635581,-0.0470947287977
0.8292,0.0469967635581,-0.0470947287977
0.8294,0.0469967635581,-0.0470947287977
0.8296,0.00939935271163,-0.0470947287977
0.8298,0.00939935271163,-0.0470947287977
0.83,-0.0281980581349,-0.0470947287977
0.8302,-0.0281980581349,-0.0470947287977
0.8304,-0.0281980581349,-0.0470947287977
0.8306,-0.0281980581349,-0.0470947287977
0.8308,-0.0281980581349,-0.0470947287977
0.831,-0.0281980581349,-0.0470947287977
0.8312,-0.0281980581349,-0.0470947287977
0.8314,-0.0657954689814,-0.0470947287977
0.8316,-0.0657954689814,-0.0470947287977
0.8318,-0.0657954689814,-0.0470947287977
0.832,-0.103392879828,-0.0470947287977
0.8322,-0.103392879828,-0.0470947287977
0.8324,-0.103392879828,-0.0470947287977
0.8326,-0.140990290674,-0.0470947287977
0.8328,-0.178587701521,-0.0470947287977
0.833,-0.178587701521,-0.0470947287977
0.8332,-0.178587701521,-0.0470947287977
0.8334,-0.216185112367,-0.0470947287977
0.8336,-0.178587701521,-0.0470947287977
0.8338,-0.178587701521,-0.0470947287977
0.834,-0.216185112367,-0.0470947287977
0.8342,-0.178587701521,-0.0470947287977
0.8344,-0.216185112367,-0.0470947287977
0.8346,-0.178587701521,-0.0470947287977
0.8348,-0.216185112367,-0.0470947287977
0.835,-0.216185112367,-0.0470947287977
0.8352,-0.216185112367,-0.0470947287977
0.8354,-0.216185112367,-0.0470947287977
0.8356,-0.216185112367,-0.0470947287977
0.8358,-0.178587701521,-0.0470947287977
0.836,-0.178587701521,-0.0470947287977
0.8362,-0.216185112367,-0.0470947287977
0.8364,-0.178587701521,-0.0470947287977
0.8366,-0.216185112367,-0.0470947287977
0.8368,-0.216185112367,-0.0470947287977
0.837,-0.216185112367,-0.0470947287977
0.8372,-0.216185112367,-0.0470947287977
0.8374,-0.216185112367,-0.0470947287977
0.8376,-0.178587701521,-0.0470947287977
0.8378,-0.178587701521,-0.0470947287977
0.838,-0.178587701521,-0.0470947287977
0.8382,-0.178587701521,-0.0470947287977
0.8384,-0.178587701521,-0.0470947287977
0.8386,-0.178587701521,-0.0470947287977
0.8388,-0.216185112367,-0.0470947287977
0.839,-0.216185112367,-0.0470947287977
0.8392,-0.216185112367,-0.0470947287977
0.8394,-0.178587701521,-0.0470947287977
0.8396,-0.178587701521,-0.0470947287977
0.8398,-0.178587701521,-0.0470947287977
0.84,-0.140990290674,-0.0470947287977
0.8402,-0.140990290674,-0.0470947287977
0.8404,-0.103392879828,-0.0470947287977
0.8406,-0.103392879828,-0.0470947287977
0.8408,-0.140990290674,-0.0470947287977
0.841,-0.103392879828,-0.0470947287977
0.8412,-0.103392879828,-0.0470947287977
0.8414,-0.0657954689814,-0.0470947287977
0.8416,-0.0657954689814,-0.0470947287977
0.8418,-0.0281980581349,-0.0470947287977
0.842,-0.0281980581349,-0.0470947287977
0.8422,-0.0281980581349,-0.0470947287977
0.8424,-0.0281980581349,-0.0470947287977
0.8426,-0.0281980581349,-0.0470947287977
0.8428,-0.0281980581349,-0.0470947287977
0.843,-0.0281980581349,-0.0470947287977
0.8432,0.00939935271163,-0.0470947287977
0.8434,0.00939935271163,-0.0470947287977
0.8436,0.00939935271163,-0.0470947287977
0.8438,0.00939935271163,-0.0470947287977
0.844,0.00939935271163,-0.0470947287977
0.8442,0.0469967635581,-0.0470947287977
0.8444,0.00939935271163,-0.0470947287977
0.8446,0.0469967635581,-0.0470947287977
0.8448,0.0469967635581,-0.0470947287977
0.845,0.0845941744046,-0.0470947287977
0.8452,0.0845941744046,-0.0470947287977
0.8454,0.122191585251,-0.0470947287977
0.8456,0.0845941744046,-0.0470947287977
0.8458,0.122191585251,-0.0470947287977
0.846,0.122191585251,-0.0470947287977
0.8462,0.122191585251,-0.0470947287977
0.8464,0.122191585251,-0.0470947287977
0.8466,0.122191585251,-0.0470947287977
0.8468,0.122191585251,-0.0470947287977
0.847,0.15743915792,-0.0470947287977
0.8472,0.15743915792,-0.0470947287977
0.8474,0.195036568766,-0.0470947287977
0.8476,0.195036568766,-0.0470947287977
0.8478,0.195036568766,-0.0470947287977
0.848,0.195036568766,-0.0470947287977
0.8482,0.232633979613,-0.0470947287977
0.8484,0.232633979613,-0.0470947287977
0.8486,0.195036568766,-0.0470947287977
0.8488,0.232633979613,-0.0470947287977
0.849,0.232633979613,-0.0470947287977
0.8492,0.232633979613,-0.0470947287977
0.8494,0.232633979613,-0.0470947287977
0.8496,0.232633979613,-0.0470947287977
0.8498,0.232633979613,-0.0470947287977
0.85,0.232633979613,-0.0470947287977
0.8502,0.195036568766,-0.0470947287977
0.8504,0.195036568766,-0.0470947287977
0.8506,0.195036568766,-0.0470947287977
0.8508,0.195036568766,-0.0470947287977
0.851,0.232633979613,-0.0470947287977
0.8512,0.232633979613,-0.0470947287977
0.8514,0.232633979613,-0.0470947287977
0.8516,0.232633979613,-0.0470947287977
0.8518,0.195036568766,-0.0470947287977
0.852,0.15743915792,-0.0470947287977
0.8522,0.195036568766,-0.0470947287977
0.8524,0.195036568766,-0.0470947287977
0.8526,0.195036568766,-0.0470947287977
0.8528,0.195036568766,-0.0470947287977
0.853,0.195036568766,-0.0470947287977
0.8532,0.195036568766,-0.0470947287977
0.8534,0.15743915792,-0.0470947287977
0.8536,0.15743915792,-0.0470947287977
0.8538,0.15743915792,-0.0470947287977
0.854,0.122191585251,-0.0470947287977
0.8542,0.122191585251,-0.0470947287977
0.8544,0.122191585251,-0.0470947287977
0.8546,0.122191585251,-0.0470947287977
0.8548,0.0845941744046,-0.0470947287977
0.855,0.0845941744046,-0.0470947287977
0.8552,0.122191585251,-0.0470947287977
0.8554,0.0845941744046,-0.0470947287977
0.8556,0.0469967635581,-0.0470947287977
0.8558,0.00939935271163,-0.0470947287977
0.856,0.0469967635581,-0.0470947287977
0.8562,0.00939935271163,-0.0470947287977
0.8564,0.00939935271163,-0.0470947287977
0.8566,0.0469967635581,-0.0470947287977
0.8568,0.0469967635581,-0.0470947287977
0.857,0.00939935271163,-0.0470947287977
0.8572,0.00939935271163,-0.0470947287977
0.8574,0.00939935271163,-0.0470947287977
0.8576,0.00939935271163,-0.0470947287977
0.8578,-0.0281980581349,-0.0470947287977
0.858,0.00939935271163,-0.0470947287977
0.8582,-0.0281980581349,-0.0470947287977
0.8584,-0.0281980581349,-0.0470947287977
0.8586,-0.0281980581349,-0.0470947287977
0.8588,-0.0281980581349,-0.0470947287977
0.859,-0.0281980581349,-0.0470947287977
0.8592,-0.0657954689814,-0.0470947287977
0.8594,-0.103392879828,-0.0470947287977
0.8596,-0.103392879828,-0.0470947287977
0.8598,-0.103392879828,-0.0470947287977
0.86,-0.103392879828,-0.0470947287977
0.8602,-0.140990290674,-0.0470947287977
0.8604,-0.140990290674,-0.0470947287977
0.8606,-0.140990290674,-0.0470947287977
0.8608,-0.140990290674,-0.0470947287977
0.861,-0.178587701521,-0.0470947287977
0.8612,-0.178587701521,-0.0470947287977
0.8614,-0.178587701521,-0.0470947287977
0.8616,-0.178587701521,-0.0470947287977
0.8618,-0.178587701521,-0.0470947287977
0.862,-0.178587701521,-0.0470947287977
0.8622,-0.178587701521,-0.0470947287977
0.8624,-0.178587701521,-0.0470947287977
0.8626,-0.178587701521,-0.0470947287977
0.8628,-0.178587701521,-0.0470947287977
0.863,-0.178587701521,-0.0470947287977
0.8632,-0.178587701521,-0.0470947287977
0.8634,-0.178587701521,-0.0470947287977
0.8636,-0.178587701521,-0.0470947287977
0.8638,-0.178587701521,-0.0470947287977
0.864,-0.178587701521,-0.0470947287977
0.8642,-0.216185112367,-0.0470947287977
0.8644,-0.178587701521,-0.0470947287977
0.8646,-0.178587701521,-0.0470947287977
0.8648,-0.216185112367,-0.0470947287977
0.865,-0.216185112367,-0.0470947287977
0.8652,-0.216185112367,-0.0470947287977
0.8654,-0.216185112367,-0.0470947287977
0.8656,-0.178587701521,-0.0470947287977
0.8658,-0.178587701521,-0.0470947287977
0.866,-0.178587701521,-0.0470947287977
0.8662,-0.178587701521,-0.0470947287977
0.8664,-0.178587701521,-0.0470947287977
0.8666,-0.178587701521,-0.0470947287977
0.8668,-0.178587701521,-0.0470947287977
0.867,-0.178587701521,-0.0470947287977
0.8672,-0.178587701521,-0.0470947287977
0.8674,-0.178587701521,-0.0470947287977
0.8676,-0.178587701521,-0.0470947287977
0.8678,-0.178587701521,-0.0470947287977
0.868,-0.178587701521,-0.0470947287977
0.8682,-0.178587701521,-0.0470947287977
0.8684,-0.178587701521,-0.0470947287977
0.8686,-0.178587701521,-0.0470947287977
0.8688,-0.178587701521,-0.0470947287977
0.869,-0.178587701521,-0.0470947287977
0.8692,-0.140990290674,-0.0470947287977
0.8694,-0.103392879828,-0.0470947287977
0.8696,-0.103392879828,-0.0470947287977
0.8698,-0.0657954689814,-0.0470947287977
0.87,-0.0657954689814,-0.0470947287977
0.8702,-0.0281980581349,-0.0470947287977
0.8704,-0.0281980581349,-0.0470947287977
0.8706,-0.0281980581349,-0.0470947287977
0.8708,-0.0281980581349,-0.0470947287977
0.871,-0.0281980581349,-0.0470947287977
0.8712,-0.0281980581349,-0.0470947287977
0.8714,0.00939935271163,-0.0470947287977
0.8716,0.00939935271163,-0.0470947287977
0.8718,0.00939935271163,-0.0470947287977
0.872,0.0469967635581,-0.0470947287977
0.8722,0.0469967635581,-0.0470947287977
0.8724,0.00939935271163,-0.0470947287977
0.8726,0.0469967635581,-0.0470947287977
0.8728,0.0469967635581,-0.0470947287977
0.873,0.0469967635581,-0.0470947287977
0.8732,0.0469967635581,-0.0470947287977
0.8734,0.0845941744046,-0.0470947287977
0.8736,0.0845941744046,-0.0470947287977
0.8738,0.122191585251,-0.0470947287977
0.874,0.122191585251,-0.0470947287977
0.8742,0.122191585251,-0.0470947287977
0.8744,0.122191585251,-0.0470947287977
0.8746,0.122191585251,-0.0470947287977
0.8748,0.15743915792,-0.0470947287977
0.875,0.195036568766,-0.0470947287977
0.8752,0.195036568766,-0.0470947287977
0.8754,0.232633979613,-0.0470947287977
0.8756,0.232633979613,-0.0470947287977
0.8758,0.232633979613,-0.0470947287977
0.876,0.232633979613,-0.0470947287977
0.8762,0.232633979613,-0.0470947287977
0.8764,0.232633979613,-0.0470947287977
0.8766,0.232633979613,-0.0470947287977
0.8768,0.232633979613,-0.0470947287977
0.877,0.232633979613,-0.0470947287977
0.8772,0.232633979613,-0.0470947287977
0.8774,0.232633979613,-0.0470947287977
0.8776,0.232633979613,-0.0470947287977
0.8778,0.232633979613,-0.0470947287977
0.878,0.232633979613,-0.0470947287977
0.8782,0.232633979613,-0.0470947287977
0.8784,0.270231390459,-0.0470947287977
0.8786,0.232633979613,-0.0470947287977
0.8788,0.270231390459,-0.0470947287977
0.879,0.232633979613,-0.0470947287977
0.8792,0.270231390459,-0.0470947287977
0.8794,0.270231390459,-0.0470947287977
0.8796,0.232633979613,-0.0470947287977
0.8798,0.232633979613,-0.0470947287977
0.88,0.232633979613,-0.0470947287977
0.8802,0.232633979613,-0.0470947287977
0.8804,0.232633979613,-0.0470947287977
0.8806,0.232633979613,-0.0470947287977
0.8808,0.232633979613,-0.0470947287977
0.881,0.232633979613,-0.0470947287977
0.8812,0.232633979613,-0.0470947287977
0.8814,0.232633979613,-0.0470947287977
0.8816,0.195036568766,-0.0470947287977
0.8818,0.195036568766,-0.0470947287977
0.882,0.195036568766,-0.0470947287977
0.8822,0.195036568766,-0.0470947287977
0.8824,0.15743915792,-0.0470947287977
0.8826,0.195036568766,-0.0470947287977
0.8828,0.15743915792,-0.0470947287977
0.883,0.195036568766,-0.0470947287977
0.8832,0.195036568766,-0.0470947287977
0.8834,0.15743915792,-0.0470947287977
0.8836,0.122191585251,-0.0470947287977
0.8838,0.0845941744046,-0.0470947287977
0.884,0.0845941744046,-0.0470947287977
0.8842,0.0845941744046,-0.0470947287977
0.8844,0.0845941744046,-0.0470947287977
0.8846,0.0845941744046,-0.0470947287977
0.8848,0.0845941744046,-0.0470947287977
0.885,0.0845941744046,-0.0470947287977
0.8852,0.0469967635581,-0.0470947287977
0.8854,0.0469967635581,-0.0470947287977
0.8856,0.00939935271163,-0.0470947287977
0.8858,-0.0281980581349,-0.0470947287977
0.886,-0.0281980581349,-0.0470947287977
0.8862,-0.0281980581349,-0.0470947287977
0.8864,-0.0281980581349,-0.0470947287977
0.8866,-0.0281980581349,-0.0470947287977
0.8868,-0.0281980581349,-0.0470947287977
0.887,-0.0281980581349,-0.0470947287977
0.8872,-0.0657954689814,-0.0470947287977
0.8874,-0.0657954689814,-0.0470947287977
0.8876,-0.0657954689814,-0.0470947287977
0.8878,-0.0657954689814,-0.0470947287977
0.888,-0.103392879828,-0.0470947287977
0.8882,-0.103392879828,-0.0470947287977
0.8884,-0.103392879828,-0.0470947287977
0.8886,-0.103392879828,-0.0470947287977
0.8888,-0.103392879828,-0.0470947287977
0.889,-0.140990290674,-0.0470947287977
0.8892,-0.178587701521,-0.0470947287977
0.8894,-0.178587701521,-0.0470947287977
0.8896,-0.178587701521,-0.0470947287977
0.8898,-0.178587701521,-0.0470947287977
0.89,-0.178587701521,-0.0470947287977
0.8902,-0.178587701521,-0.0470947287977
0.8904,-0.178587701521,-0.0470947287977
0.8906,-0.178587701521,-0.0470947287977
0.8908,-0.216185112367,-0.0470947287977
0.891,-0.216185112367,-0.0470947287977
0.8912,-0.216185112367,-0.0470947287977
0.8914,-0.216185112367,-0.0470947287977
0.8916,-0.216185112367,-0.0470947287977
0.8918,-0.216185112367,-0.0470947287977
0.892,-0.216185112367,-0.0470947287977
0.8922,-0.216185112367,-0.0470947287977
0.8924,-0.216185112367,-0.0470947287977
0.8926,-0.216185112367,-0.0470947287977
0.8928,-0.253782523214,-0.0470947287977
0.893,-0.253782523214,-0.0470947287977
0.8932,-0.253782523214,-0.0470947287977
0.8934,-0.253782523214,-0.0470947287977
0.8936,-0.216185112367,-0.0470947287977
0.8938,-0.253782523214,-0.0470947287977
0.894,-0.253782523214,-0.0470947287977
0.8942,-0.253782523214,-0.0470947287977
0.8944,-0.253782523214,-0.0470947287977
0.8946,-0.216185112367,-0.0470947287977
0.8948,-0.29137993406,-0.0470947287977
0.895,-0.253782523214,-0.0470947287977
0.8952,-0.29137993406,-0.0470947287977
0.8954,-0.253782523214,-0.0470947287977
0.8956,-0.253782523214,-0.0470947287977
0.8958,-0.216185112367,-0.0470947287977
0.896,-0.216185112367,-0.0470947287977
0.8962,-0.216185112367,-0.0470947287977
0.8964,-0.178587701521,-0.0470947287977
0.8966,-0.178587701521,-0.0470947287977
0.8968,-0.178587701521,-0.0470947287977
0.897,-0.178587701521,-0.0470947287977
0.8972,-0.178587701521,-0.0470947287977
0.8974,-0.178587701521,-0.0470947287977
0.8976,-0.178587701521,-0.0470947287977
0.8978,-0.140990290674,-0.0470947287977
0.898,-0.103392879828,-0.0470947287977
0.8982,-0.103392879828,-0.0470947287977
0.8984,-0.103392879828,-0.0470947287977
0.8986,-0.103392879828,-0.0470947287977
0.8988,-0.103392879828,-0.0470947287977
0.899,-0.103392879828,-0.0470947287977
0.8992,-0.0657954689814,-0.0470947287977
0.8994,-0.0657954689814,-0.0470947287977
0.8996,-0.0281980581349,-0.0470947287977
0.8998,-0.0281980581349,-0.0470947287977
0.9,-0.0281980581349,-0.0470947287977
0.9002,-0.0281980581349,-0.0470947287977
0.9004,-0.0281980581349,-0.0470947287977
0.9006,-0.0281980581349,-0.0470947287977
0.9008,0.00939935271163,-0.0470947287977
0.901,0.00939935271163,-0.0470947287977
0.9012,0.0469967635581,-0.0470947287977
0.9014,0.0469967635581,-0.0470947287977
0.9016,0.0845941744046,-0.0470947287977
0.9018,0.0469967635581,-0.0470947287977
0.902,0.0845941744046,-0.0470947287977
0.9022,0.0845941744046,-0.0470947287977
0.9024,0.0845941744046,-0.0470947287977
0.9026,0.0845941744046,-0.0470947287977
0.9028,0.0845941744046,-0.0470947287977
0.903,0.122191585251,-0.0470947287977
0.9032,0.122191585251,-0.0470947287977
0.9034,0.122191585251,-0.0470947287977
0.9036,0.15743915792,-0.0470947287977
0.9038,0.195036568766,-0.0470947287977
0.904,0.195036568766,-0.0470947287977
0.9042,0.195036568766,-0.0470947287977
0.9044,0.195036568766,-0.0470947287977
0.9046,0.232633979613,-0.0470947287977
0.9048,0.232633979613,-0.0470947287977
0.905,0.232633979613,-0.0470947287977
0.9052,0.232633979613,-0.0470947287977
0.9054,0.232633979613,-0.0470947287977
0.9056,0.232633979613,-0.0470947287977
0.9058,0.270231390459,-0.0470947287977
0.906,0.232633979613,-0.0470947287977
0.9062,0.270231390459,-0.0470947287977
0.9064,0.270231390459,-0.0470947287977
0.9066,0.270231390459,-0.0470947287977
0.9068,0.232633979613,-0.0470947287977
0.907,0.270231390459,-0.0470947287977
0.9072,0.270231390459,-0.0470947287977
0.9074,0.232633979613,-0.0470947287977
0.9076,0.270231390459,-0.0470947287977
0.9078,0.270231390459,-0.0470947287977
0.908,0.232633979613,-0.0470947287977
0.9082,0.232633979613,-0.0470947287977
0.9084,0.232633979613,-0.0470947287977
0.9086,0.270231390459,-0.0470947287977
0.9088,0.270231390459,-0.0470947287977
0.909,0.270231390459,-0.0470947287977
0.9092,0.270231390459,-0.0470947287977
0.9094,0.270231390459,-0.0470947287977
0.9096,0.270231390459,-0.0470947287977
0.9098,0.232633979613,-0.0470947287977
0.91,0.232633979613,-0.0470947287977
0.9102,0.232633979613,-0.0470947287977
0.9104,0.232633979613,-0.0470947287977
0.9106,0.232633979613,-0.0470947287977
0.9108,0.232633979613,-0.0470947287977
0.911,0.232633979613,-0.0470947287977
0.9112,0.232633979613,-0.0470947287977
0.9114,0.232633979613,-0.0470947287977
0.9116,0.195036568766,-0.0470947287977
0.9118,0.195036568766,-0.0470947287977
0.912,0.15743915792,-0.0470947287977
0.9122,0.15743915792,-0.0470947287977
0.9124,0.122191585251,-0.0470947287977
0.9126,0.15743915792,-0.0470947287977
0.9128,0.122191585251,-0.0470947287977
0.913,0.122191585251,-0.0470947287977
0.9132,0.122191585251,-0.0470947287977
0.9134,0.122191585251,-0.0470947287977
0.9136,0.0845941744046,-0.0470947287977
0.9138,0.0845941744046,-0.0470947287977
0.914,0.0845941744046,-0.0470947287977
0.9142,0.0845941744046,-0.0470947287977
0.9144,0.0845941744046,-0.0470947287977
0.9146,0.0845941744046,-0.0470947287977
0.9148,0.0845941744046,-0.0470947287977
0.915,0.0469967635581,-0.0470947287977
0.9152,0.00939935271163,-0.0470947287977
0.9154,0.00939935271163,-0.0470947287977
0.9156,-0.0281980581349,-0.0470947287977
0.9158,-0.0281980581349,-0.0470947287977
0.916,-0.0281980581349,-0.0470947287977
0.9162,-0.0281980581349,-0.0470947287977
0.9164,-0.0281980581349,-0.0470947287977
0.9166,-0.0657954689814,-0.0470947287977
0.9168,-0.103392879828,-0.0470947287977
0.917,-0.103392879828,-0.0470947287977
0.9172,-0.103392879828,-0.0470947287977
0.9174,-0.103392879828,-0.0470947287977
0.9176,-0.140990290674,-0.0470947287977
0.9178,-0.178587701521,-0.0470947287977
0.918,-0.178587701521,-0.0470947287977
0.9182,-0.140990290674,-0.0470947287977
0.9184,-0.140990290674,-0.0470947287977
0.9186,-0.178587701521,-0.0470947287977
0.9188,-0.178587701521,-0.0470947287977
0.919,-0.178587701521,-0.0470947287977
0.9192,-0.178587701521,-0.0470947287977
0.9194,-0.216185112367,-0.0470947287977
0.9196,-0.216185112367,-0.0470947287977
0.9198,-0.253782523214,-0.0470947287977
0.92,-0.216185112367,-0.0470947287977
0.9202,-0.216185112367,-0.0470947287977
0.9204,-0.216185112367,-0.0470947287977
0.9206,-0.253782523214,-0.0470947287977
0.9208,-0.253782523214,-0.0470947287977
0.921,-0.253782523214,-0.0470947287977
0.9212,-0.253782523214,-0.0470947287977
0.9214,-0.29137993406,-0.0470947287977
0.9216,-0.29137993406,-0.0470947287977
0.9218,-0.253782523214,-0.0470947287977
0.922,-0.29137993406,-0.0470947287977
0.9222,-0.29137993406,-0.0470947287977
0.9224,-0.253782523214,-0.0470947287977
0.9226,-0.29137993406,-0.0470947287977
0.9228,-0.253782523214,-0.0470947287977
0.923,-0.29137993406,-0.0470947287977
0.9232,-0.29137993406,-0.0470947287977
0.9234,-0.29137993406,-0.0470947287977
0.9236,-0.29137993406,-0.0470947287977
0.9238,-0.253782523214,-0.0470947287977
0.924,-0.216185112367,-0.0470947287977
0.9242,-0.253782523214,-0.0470947287977
0.9244,-0.216185112367,-0.0470947287977
0.9246,-0.253782523214,-0.0470947287977
0.9248,-0.216185112367,-0.0470947287977
0.925,-0.216185112367,-0.0470947287977
0.9252,-0.216185112367,-0.0470947287977
0.9254,-0.216185112367,-0.0470947287977
0.9256,-0.216185112367,-0.0470947287977
0.9258,-0.216185112367,-0.0470947287977
0.926,-0.178587701521,-0.0470947287977
0.9262,-0.178587701521,-0.0470947287977
0.9264,-0.178587701521,-0.0470947287977
0.9266,-0.178587701521,-0.0470947287977
0.9268,-0.178587701521,-0.0470947287977
0.927,-0.178587701521,-0.0470947287977
0.9272,-0.178587701521,-0.0470947287977
0.9274,-0.140990290674,-0.0470947287977
0.9276,-0.140990290674,-0.0470947287977
0.9278,-0.103392879828,-0.0470947287977
0.928,-0.103392879828,-0.0470947287977
0.9282,-0.103392879828,-0.0470947287977
0.9284,-0.103392879828,-0.0470947287977
0.9286,-0.0657954689814,-0.0470947287977
0.9288,-0.0657954689814,-0.0470947287977
0.929,-0.0657954689814,-0.0470947287977
0.9292,-0.0657954689814,-0.0470947287977
0.9294,-0.0281980581349,-0.0470947287977
0.9296,-0.0281980581349,-0.0470947287977
0.9298,-0.0281980581349,-0.0470947287977
0.93,-0.0281980581349,-0.0470947287977
0.9302,0.00939935271163,-0.0470947287977
0.9304,-0.0281980581349,-0.0470947287977
0.9306,0.00939935271163,-0.0470947287977
0.9308,0.0469967635581,-0.0470947287977
0.931,0.0845941744046,-0.0470947287977
0.9312,0.0845941744046,-0.0470947287977
0.9314,0.0845941744046,-0.0470947287977
0.9316,0.122191585251,-0.0470947287977
0.9318,0.122191585251,-0.0470947287977
0.932,0.122191585251,-0.0470947287977
0.9322,0.122191585251,-0.0470947287977
0.9324,0.122191585251,-0.0470947287977
0.9326,0.122191585251,-0.0470947287977
0.9328,0.122191585251,-0.0470947287977
0.933,0.15743915792,-0.0470947287977
0.9332,0.195036568766,-0.0470947287977
0.9334,0.195036568766,-0.0470947287977
0.9336,0.195036568766,-0.0470947287977
0.9338,0.195036568766,-0.0470947287977
0.934,0.195036568766,-0.0470947287977
0.9342,0.195036568766,-0.0470947287977
0.9344,0.195036568766,-0.0470947287977
0.9346,0.195036568766,-0.0470947287977
0.9348,0.232633979613,-0.0470947287977
0.935,0.232633979613,-0.0470947287977
0.9352,0.270231390459,-0.0470947287977
0.9354,0.232633979613,-0.0470947287977
0.9356,0.270231390459,-0.0470947287977
0.9358,0.270231390459,-0.0470947287977
0.936,0.270231390459,-0.0470947287977
0.9362,0.270231390459,-0.0470947287977
0.9364,0.270231390459,-0.0470947287977
0.9366,0.270231390459,-0.0470947287977
0.9368,0.270231390459,-0.0470947287977
0.937,0.307828801306,-0.0470947287977
0.9372,0.307828801306,-0.0470947287977
0.9374,0.307828801306,-0.0470947287977
0.9376,0.270231390459,-0.0470947287977
0.9378,0.270231390459,-0.0470947287977
0.938,0.270231390459,-0.0470947287977
0.9382,0.270231390459,-0.0470947287977
0.9384,0.270231390459,-0.0470947287977
0.9386,0.270231390459,-0.0470947287977
0.9388,0.270231390459,-0.0470947287977
0.939,0.270231390459,-0.0470947287977
0.9392,0.270231390459,-0.0470947287977
0.9394,0.270231390459,-0.0470947287977
0.9396,0.270231390459,-0.0470947287977
0.9398,0.232633979613,-0.0470947287977
0.94,0.270231390459,-0.0470947287977
0.9402,0.270231390459,-0.0470947287977
0.9404,0.270231390459,-0.0470947287977
0.9406,0.270231390459,-0.0470947287977
0.9408,0.270231390459,-0.0470947287977
0.941,0.270231390459,-0.0470947287977
0.9412,0.232633979613,-0.0470947287977
0.9414,0.232633979613,-0.0470947287977
0.9416,0.232633979613,-0.0470947287977
0.9418,0.195036568766,-0.0470947287977
0.942,0.195036568766,-0.0470947287977
0.9422,0.122191585251,-0.0470947287977
0.9424,0.122191585251,-0.0470947287977
0.9426,0.15743915792,-0.0470947287977
0.9428,0.122191585251,-0.0470947287977
0.943,0.122191585251,-0.0470947287977
0.9432,0.122191585251,-0.0470947287977
0.9434,0.0845941744046,-0.0470947287977
0.9436,0.0845941744046,-0.0470947287977
0.9438,0.0469967635581,-0.0470947287977
0.944,0.0845941744046,-0.0470947287977
0.9442,0.0469967635581,-0.0470947287977
0.9444,0.0469967635581,-0.0470947287977
0.9446,0.00939935271163,-0.0470947287977
0.9448,0.00939935271163,-0.0470947287977
0.945,0.00939935271163,-0.0470947287977
0.9452,-0.0281980581349,-0.0470947287977
0.9454,-0.0281980581349,-0.0470947287977
0.9456,-0.0281980581349,-0.0470947287977
0.9458,-0.0281980581349,-0.0470947287977
0.946,-0.0281980581349,-0.0470947287977
0.9462,-0.0657954689814,-0.0470947287977
0.9464,-0.0657954689814,-0.0470947287977
0.9466,-0.103392879828,-0.0470947287977
0.9468,-0.103392879828,-0.0470947287977
0.947,-0.103392879828,-0.0470947287977
0.9472,-0.140990290674,-0.0470947287977
0.9474,-0.178587701521,-0.0470947287977
0.9476,-0.178587701521,-0.0470947287977
0.9478,-0.178587701521,-0.0470947287977
0.948,-0.178587701521,-0.0470947287977
0.9482,-0.178587701521,-0.0470947287977
0.9484,-0.178587701521,-0.0470947287977
0.9486,-0.178587701521,-0.0470947287977
0.9488,-0.178587701521,-0.0470947287977
0.949,-0.178587701521,-0.0470947287977
0.9492,-0.216185112367,-0.0470947287977
0.9494,-0.216185112367,-0.0470947287977
0.9496,-0.216185112367,-0.0470947287977
0.9498,-0.253782523214,-0.0470947287977
0.95,-0.253782523214,-0.0470947287977
0.9502,-0.253782523214,-0.0470947287977
0.9504,-0.216185112367,-0.0470947287977
0.9506,-0.253782523214,-0.0470947287977
0.9508,-0.29137993406,-0.0470947287977
0.951,-0.29137993406,-0.0470947287977
0.9512,-0.29137993406,-0.0470947287977
0.9514,-0.29137993406,-0.0470947287977
0.9516,-0.29137993406,-0.0470947287977
0.9518,-0.328977344907,-0.0470947287977
0.952,-0.328977344907,-0.0470947287977
0.9522,-0.29137993406,-0.0470947287977
0.9524,-0.328977344907,-0.0470947287977
0.9526,-0.29137993406,-0.0470947287977
0.9528,-0.29137993406,-0.0470947287977
0.953,-0.29137993406,-0.0470947287977
0.9532,-0.29137993406,-0.0470947287977
0.9534,-0.29137993406,-0.0470947287977
0.9536,-0.29137993406,-0.0470947287977
0.9538,-0.29137993406,-0.0470947287977
0.954,-0.253782523214,-0.0470947287977
0.9542,-0.29137993406,-0.0470947287977
0.9544,-0.253782523214,-0.0470947287977
0.9546,-0.253782523214,-0.0470947287977
0.9548,-0.253782523214,-0.0470947287977
0.955,-0.253782523214,-0.0470947287977
0.9552,-0.216185112367,-0.0470947287977
0.9554,-0.216185112367,-0.0470947287977
0.9556,-0.216185112367,-0.0470947287977
0.9558,-0.216185112367,-0.0470947287977
0.956,-0.216185112367,-0.0470947287977
0.9562,-0.216185112367,-0.0470947287977
0.9564,-0.216185112367,-0.0470947287977
0.9566,-0.216185112367,-0.0470947287977
0.9568,-0.178587701521,-0.0470947287977
0.957,-0.178587701521,-0.0470947287977
0.9572,-0.178587701521,-0.0470947287977
0.9574,-0.140990290674,-0.0470947287977
0.9576,-0.140990290674,-0.0470947287977
0.9578,-0.103392879828,-0.0470947287977
0.958,-0.103392879828,-0.0470947287977
0.9582,-0.103392879828,-0.0470947287977
0.9584,-0.103392879828,-0.0470947287977
0.9586,-0.103392879828,-0.0470947287977
0.9588,-0.0657954689814,-0.0470947287977
0.959,-0.0281980581349,-0.0470947287977
0.9592,-0.0281980581349,-0.0470947287977
0.9594,-0.0281980581349,-0.0470947287977
0.9596,0.00939935271163,-0.0470947287977
0.9598,-0.0281980581349,-0.0470947287977
0.96,-0.0281980581349,-0.0470947287977
0.9602,0.00939935271163,-0.0470947287977
0.9604,0.00939935271163,-0.0470947287977
0.9606,0.0469967635581,-0.0470947287977
0.9608,0.00939935271163,-0.0470947287977
0.961,0.0845941744046,-0.0470947287977
0.9612,0.0845941744046,-0.0470947287977
0.9614,0.122191585251,-0.0470947287977
0.9616,0.0845941744046,-0.0470947287977
0.9618,0.122191585251,-0.0470947287977
0.962,0.122191585251,-0.0470947287977
0.9622,0.122191585251,-0.0470947287977
0.9624,0.15743915792,-0.0470947287977
0.9626,0.15743915792,-0.0470947287977
0.9628,0.195036568766,-0.0470947287977
0.963,0.195036568766,-0.0470947287977
0.9632,0.195036568766,-0.0470947287977
0.9634,0.195036568766,-0.0470947287977
0.9636,0.195036568766,-0.0470947287977
0.9638,0.232633979613,-0.0470947287977
0.964,0.232633979613,-0.0470947287977
0.9642,0.195036568766,-0.0470947287977
0.9644,0.232633979613,-0.0470947287977
0.9646,0.232633979613,-0.0470947287977
0.9648,0.232633979613,-0.0470947287977
0.965,0.270231390459,-0.0470947287977
0.9652,0.270231390459,-0.0470947287977
0.9654,0.270231390459,-0.0470947287977
0.9656,0.270231390459,-0.0470947287977
0.9658,0.270231390459,-0.0470947287977
0.966,0.270231390459,-0.0470947287977
0.9662,0.270231390459,-0.0470947287977
0.9664,0.270231390459,-0.0470947287977
0.9666,0.270231390459,-0.0470947287977
0.9668,0.270231390459,-0.0470947287977
0.967,0.270231390459,-0.0470947287977
0.9672,0.307828801306,-0.0470947287977
0.9674,0.307828801306,-0.0470947287977
0.9676,0.270231390459,-0.0470947287977
0.9678,0.270231390459,-0.0470947287977
0.968,0.270231390459,-0.0470947287977
0.9682,0.270231390459,-0.0470947287977
0.9684,0.270231390459,-0.0470947287977
0.9686,0.270231390459,-0.0470947287977
0.9688,0.270231390459,-0.0470947287977
0.969,0.270231390459,-0.0470947287977
0.9692,0.232633979613,-0.0470947287977
0.9694,0.270231390459,-0.0470947287977
0.9696,0.232633979613,-0.0470947287977
0.9698,0.232633979613,-0.0470947287977
0.97,0.232633979613,-0.0470947287977
0.9702,0.232633979613,-0.0470947287977
0.9704,0.270231390459,-0.0470947287977
0.9706,0.232633979613,-0.0470947287977
0.9708,0.232633979613,-0.0470947287977
0.971,0.232633979613,-0.0470947287977
0.9712,0.195036568766,-0.0470947287977
0.9714,0.195036568766,-0.0470947287977
0.9716,0.195036568766,-0.0470947287977
0.9718,0.195036568766,-0.0470947287977
0.972,0.195036568766,-0.0470947287977
0.9722,0.195036568766,-0.0470947287977
0.9724,0.195036568766,-0.0470947287977
0.9726,0.195036568766,-0.0470947287977
0.9728,0.195036568766,-0.0470947287977
0.973,0.122191585251,-0.0470947287977
0.9732,0.122191585251,-0.0470947287977
0.9734,0.0845941744046,-0.0470947287977
0.9736,0.0845941744046,-0.0470947287977
0.9738,0.0845941744046,-0.0470947287977
0.974,0.0845941744046,-0.0470947287977
0.9742,0.0845941744046,-0.0470947287977
0.9744,0.0845941744046,-0.0470947287977
0.9746,0.0469967635581,-0.0470947287977
0.9748,0.00939935271163,-0.0470947287977
0.975,0.00939935271163,-0.0470947287977
0.9752,-0.0281980581349,-0.0470947287977
0.9754,-0.0281980581349,-0.0470947287977
0.9756,-0.0281980581349,-0.0470947287977
0.9758,-0.0657954689814,-0.0470947287977
0.976,-0.0281980581349,-0.0470947287977
0.9762,-0.0657954689814,-0.0470947287977
0.9764,-0.0657954689814,-0.0470947287977
0.9766,-0.0657954689814,-0.0470947287977
0.9768,-0.103392879828,-0.0470947287977
0.977,-0.140990290674,-0.0470947287977
0.9772,-0.140990290674,-0.0470947287977
0.9774,-0.140990290674,-0.0470947287977
0.9776,-0.140990290674,-0.0470947287977
0.9778,-0.178587701521,-0.0470947287977
0.978,-0.140990290674,-0.0470947287977
0.9782,-0.140990290674,-0.0470947287977
0.9784,-0.178587701521,-0.0470947287977
0.9786,-0.178587701521,-0.0470947287977
0.9788,-0.178587701521,-0.0470947287977
0.979,-0.178587701521,-0.0470947287977
0.9792,-0.216185112367,-0.0470947287977
0.9794,-0.216185112367,-0.0470947287977
0.9796,-0.216185112367,-0.0470947287977
0.9798,-0.216185112367,-0.0470947287977
0.98,-0.253782523214,-0.0470947287977
0.9802,-0.253782523214,-0.0470947287977
0.9804,-0.253782523214,-0.0470947287977
0.9806,-0.29137993406,-0.0470947287977
0.9808,-0.29137993406,-0.0470947287977
0.981,-0.328977344907,-0.0470947287977
0.9812,-0.328977344907,-0.0470947287977
0.9814,-0.29137993406,-0.0470947287977
0.9816,-0.29137993406,-0.0470947287977
0.9818,-0.29137993406,-0.0470947287977
0.982,-0.29137993406,-0.0470947287977
0.9822,-0.29137993406,-0.0470947287977
0.9824,-0.29137993406,-0.0470947287977
0.9826,-0.29137993406,-0.0470947287977
0.9828,-0.29137993406,-0.0470947287977
0.983,-0.29137993406,-0.0470947287977
0.9832,-0.328977344907,-0.0470947287977
0.9834,-0.29137993406,-0.0470947287977
0.9836,-0.29137993406,-0.0470947287977
0.9838,-0.29137993406,-0.0470947287977
0.984,-0.29137993406,-0.0470947287977
0.9842,-0.29137993406,-0.0470947287977
0.9844,-0.29137993406,-0.0470947287977
0.9846,-0.29137993406,-0.0470947287977
0.9848,-0.29137993406,-0.0470947287977
0.985,-0.29137993406,-0.0470947287977
0.9852,-0.29137993406,-0.0470947287977
0.9854,-0.29137993406,-0.0470947287977
0.9856,-0.216185112367,-0.0470947287977
0.9858,-0.216185112367,-0.0470947287977
0.986,-0.216185112367,-0.0470947287977
0.9862,-0.216185112367,-0.0470947287977
0.9864,-0.216185112367,-0.0470947287977
0.9866,-0.216185112367,-0.0470947287977
0.9868,-0.216185112367,-0.0470947287977
0.987,-0.178587701521,-0.0470947287977
0.9872,-0.178587701521,-0.0470947287977
0.9874,-0.178587701521,-0.0470947287977
0.9876,-0.103392879828,-0.0470947287977
0.9878,-0.140990290674,-0.0470947287977
0.988,-0.140990290674,-0.0470947287977
0.9882,-0.103392879828,-0.0470947287977
0.9884,-0.103392879828,-0.0470947287977
0.9886,-0.103392879828,-0.0470947287977
0.9888,-0.103392879828,-0.0470947287977
0.989,-0.0657954689814,-0.0470947287977
0.9892,-0.0281980581349,-0.0470947287977
0.9894,-0.0281980581349,-0.0470947287977
0.9896,-0.0281980581349,-0.0470947287977
0.9898,0.00939935271163,-0.0470947287977
0.99,-0.0281980581349,-0.0470947287977
0.9902,-0.0281980581349,-0.0470947287977
0.9904,0.00939935271163,-0.0470947287977
0.9906,0.00939935271163,-0.0470947287977
0.9908,0.00939935271163,-0.0470947287977
0.991,0.0845941744046,-0.0470947287977
0.9912,0.0845941744046,-0.0470947287977
0.9914,0.0845941744046,-0.0470947287977
0.9916,0.0845941744046,-0.0470947287977
0.9918,0.0845941744046,-0.0470947287977
0.992,0.0845941744046,-0.0470947287977
0.9922,0.122191585251,-0.0470947287977
0.9924,0.122191585251,-0.0470947287977
0.9926,0.122191585251,-0.0470947287977
0.9928,0.15743915792,-0.0470947287977
0.993,0.15743915792,-0.0470947287977
0.9932,0.15743915792,-0.0470947287977
0.9934,0.195036568766,-0.0470947287977
0.9936,0.195036568766,-0.0470947287977
0.9938,0.195036568766,-0.0470947287977
0.994,0.195036568766,-0.0470947287977
0.9942,0.195036568766,-0.0470947287977
0.9944,0.195036568766,-0.0470947287977
0.9946,0.232633979613,-0.0470947287977
0.9948,0.232633979613,-0.0470947287977
0.995,0.232633979613,-0.0470947287977
0.9952,0.270231390459,-0.0470947287977
0.9954,0.270231390459,-0.0470947287977
0.9956,0.270231390459,-0.0470947287977
0.9958,0.232633979613,-0.0470947287977
0.996,0.232633979613,-0.0470947287977
0.9962,0.232633979613,-0.0470947287977
0.9964,0.270231390459,-0.0470947287977
0.9966,0.270231390459,-0.0470947287977
0.9968,0.270231390459,-0.0470947287977
0.997,0.307828801306,-0.0470947287977
0.9972,0.270231390459,-0.0470947287977
0.9974,0.307828801306,-0.0470947287977
0.9976,0.270231390459,-0.0470947287977
0.9978,0.270231390459,-0.0470947287977
0.998,0.270231390459,-0.0470947287977
0.9982,0.270231390459,-0.0470947287977
0.9984,0.270231390459,-0.0470947287977
0.9986,0.270231390459,-0.0470947287977
0.9988,0.270231390459,-0.0470947287977
0.999,0.270231390459,-0.0470947287977
0.9992,0.270231390459,-0.0470947287977
0.9994,0.270231390459,-0.0470947287977
0.9996,0.232633979613,-0.0470947287977
0.9998,0.270231390459,-0.0470947287977
1,0.270231390459,-0.0470947287977
