"Latest: Time (s)","Latest: Z-Axis Acceleration (m/sÂ²)","Latest: Potential (mV)"
0,-68.8408592599,10.0547245983
0.0002,-67.1936226972,10.4314824287
0.0004,-65.1375142916,10.4314824287
0.0006,-64.4631107345,10.4314824287
0.0008,-61.0957926256,10.4314824287
0.001,-56.3796674025,10.4314824287
0.0012,-52.6387250233,10.0547245983
0.0014,-48.8225878224,9.70151413232
0.0016,-46.6137399351,9.32475630194
0.0018,-45.1544904266,9.32475630194
0.002,-42.7976027342,8.94799847156
0.0022,-40.4783124526,8.57124064118
0.0024,-38.6454386738,8.1944828108
0.0026,-38.2318671545,7.81772498041
0.0028,-38.4950490305,7.06420931965
0.003,-37.6350082573,6.68745148927
0.0032,-36.3613959649,6.31069365889
0.0034,-34.9021464564,5.55717799813
0.0036,-33.0692726777,5.55717799813
0.0038,-30.4868005202,5.18042016774
0.004,-28.0171205952,4.82720970176
0.0042,-25.0610241674,4.45045187138
0.0044,-21.0193025014,4.073694041
0.0046,-17.5391921599,4.073694041
0.0048,-13.3494306887,3.32017838024
0.005,-8.03644656844,3.32017838024
0.0052,-1.33705792323,2.94342054985
0.0054,7.86725821963,2.94342054985
0.0056,16.2867284111,2.56666271947
0.0058,23.4325863101,2.56666271947
0.006,29.3823765765,2.56666271947
0.0062,34.3593338373,2.56666271947
0.0064,38.6242901302,2.56666271947
0.0066,42.292387526,2.56666271947
0.0068,45.3236787755,2.56666271947
0.007,47.9789959165,2.56666271947
0.0072,50.1502463929,2.94342054985
0.0074,52.0959124042,3.32017838024
0.0076,53.7032017179,3.32017838024
0.0078,55.0896062428,3.69693621062
0.008,56.2480764645,4.073694041
0.0082,56.9976748433,4.073694041
0.0084,56.9600774324,4.45045187138
0.0086,55.949647016,4.82720970176
0.0088,53.8535913613,5.18042016774
0.009,51.6094959014,5.18042016774
0.0092,49.6638298901,5.55717799813
0.0094,47.6429690571,5.93393582851
0.0096,44.3860933425,5.93393582851
0.0098,40.3091241038,6.31069365889
0.01,36.3049998487,6.68745148927
0.0102,32.0400435558,7.06420931965
0.0104,28.4095435709,7.06420931965
0.0106,25.6790316082,7.44096715003
0.0108,24.6686011917,7.44096715003
0.011,25.0798228728,7.44096715003
0.0112,25.9398636459,7.81772498041
0.0114,27.0630862949,7.81772498041
0.0116,28.1839591058,8.1944828108
0.0118,29.2319869332,7.81772498041
0.012,29.8311956685,7.81772498041
0.0122,30.2424173497,8.1944828108
0.0124,30.8792234959,8.1944828108
0.0126,31.6264720364,8.1944828108
0.0128,32.7496946855,8.1944828108
0.013,33.1233189558,8.1944828108
0.0132,32.3008755935,7.81772498041
0.0134,30.9168209067,7.81772498041
0.0136,29.0839471279,7.44096715003
0.0138,26.3886827379,7.44096715003
0.014,23.4701837209,7.44096715003
0.0142,20.5892821148,7.06420931965
0.0144,18.0444073681,7.06420931965
0.0146,15.5747274432,7.06420931965
0.0148,13.1050475182,6.31069365889
0.015,10.1865485012,6.31069365889
0.0152,7.04246501919,5.93393582851
0.0154,3.93832878617,5.93393582851
0.0156,4.27435564561,5.55717799813
0.0158,6.22002165692,5.55717799813
0.016,7.34324430596,5.55717799813
0.0162,9.36410513896,5.18042016774
0.0164,14.5266996158,5.18042016774
0.0166,17.3347562384,4.82720970176
0.0168,19.1300326063,4.82720970176
0.017,23.1341568615,4.45045187138
0.0172,26.8750992407,4.45045187138
0.0174,30.5055992256,4.45045187138
0.0176,34.9585425727,4.45045187138
0.0178,39.2610962765,4.45045187138
0.018,42.926843834,4.45045187138
0.0182,46.0333299052,4.45045187138
0.0184,48.4654124193,4.45045187138
0.0186,49.0646211547,4.45045187138
0.0188,47.417384592,4.45045187138
0.019,44.498885575,4.45045187138
0.0192,40.5323587307,4.45045187138
0.0194,36.9418059949,4.45045187138
0.0196,33.4240982425,4.45045187138
0.0198,30.3552095822,4.82720970176
0.02,27.3239183327,4.82720970176
0.0202,22.6853377695,4.82720970176
0.0204,16.8835873083,4.82720970176
0.0206,9.43929996065,5.18042016774
0.0208,1.61903850458,5.18042016774
0.021,-5.37877958923,5.18042016774
0.0212,-10.7669585312,5.18042016774
0.0214,-14.2470688726,5.55717799813
0.0216,-15.7063183811,5.18042016774
0.0218,-15.6311235594,5.55717799813
0.022,-14.7710827863,5.55717799813
0.0222,-14.0614316566,5.55717799813
0.0224,-13.723054959,5.55717799813
0.0226,-13.7606523698,5.55717799813
0.0228,-14.0614316566,5.18042016774
0.023,-13.9486394241,5.18042016774
0.0232,-12.7878193642,5.18042016774
0.0234,-10.7669585312,5.18042016774
0.0236,-8.74609769817,5.18042016774
0.0238,-7.17640579533,4.82720970176
0.024,-6.31401518403,4.82720970176
0.0242,-6.05318314629,4.45045187138
0.0244,-7.10121097363,4.45045187138
0.0246,-9.79412552551,4.45045187138
0.0248,-12.9006115967,4.073694041
0.025,-16.6415539759,4.073694041
0.0252,-20.5328859985,3.69693621062
0.0254,-23.6017746589,3.32017838024
0.0256,-26.5954684975,3.32017838024
0.0258,-29.5515649254,2.94342054985
0.026,-31.7956603853,2.56666271947
0.0262,-33.8165212183,2.56666271947
0.0264,-35.7997846404,2.18990488909
0.0266,-37.3342289706,1.81314705871
0.0268,-38.9814655333,1.81314705871
0.027,-39.5806742687,1.43638922833
0.0272,-38.7182836574,1.05963139795
0.0274,-37.035799522,1.05963139795
0.0276,-34.3405351319,0.682873567566
0.0278,-30.2635658933,0.306115737185
0.028,-25.848219957,-0.0470947287977
0.0282,-21.7313034693,-0.0470947287977
0.0284,-17.2783601221,-0.0470947287977
0.0286,-12.9758064184,-0.0470947287977
0.0288,-8.89648734155,-0.0470947287977
0.029,-5.19314237317,-0.0470947287977
0.0292,-2.90909966425,-0.0470947287977
0.0294,-1.03862847463,-0.0470947287977
0.0296,0.345426212152,-0.0470947287977
0.0298,0.794245304132,-0.0470947287977
0.03,-0.216185112367,-0.0470947287977
0.0302,-1.71303203169,-0.0470947287977
0.0304,-3.62110063215,-0.0470947287977
0.0306,-5.56676664346,-0.0470947287977
0.0308,-7.06361356279,-0.0470947287977
0.031,-9.04687698494,-0.0470947287977
0.0312,-11.7397915368,-0.0470947287977
0.0314,-13.8358471915,-0.0470947287977
0.0316,-15.7815132028,-0.0470947287977
0.0318,-18.1759983061,-0.0470947287977
0.032,-20.3848461933,-0.0470947287977
0.0322,-21.7313034693,-0.0470947287977
0.0324,-22.1425251504,-0.0470947287977
0.0326,-22.1801225613,-0.0470947287977
0.0328,-21.4681215934,-0.0470947287977
0.033,-20.7584704636,-0.0470947287977
0.0332,-20.0088720849,-0.0470947287977
0.0334,-18.5120251655,-0.0470947287977
0.0336,-17.0175280844,-0.0470947287977
0.0338,-15.7063183811,-0.0470947287977
0.034,-14.397458516,-0.0470947287977
0.0342,-12.4517925047,-0.0470947287977
0.0344,-9.75652811467,-0.0470947287977
0.0346,-7.58762747646,-0.0470947287977
0.0348,-6.05318314629,-0.0470947287977
0.035,-4.96755790809,-0.0470947287977
0.0352,-4.81716826471,-0.0470947287977
0.0354,-5.23073978402,-0.0470947287977
0.0356,-6.05318314629,-0.0470947287977
0.0358,-7.32444560053,-0.0470947287977
0.036,-8.56046048211,-0.0470947287977
0.0362,-9.00927957409,-0.0470947287977
0.0364,-9.27011161184,-0.0470947287977
0.0366,-9.64608572031,-0.0470947287977
0.0368,-10.2429446175,-0.0470947287977
0.037,-10.9173481746,-0.0470947287977
0.0372,-11.8525837694,-0.0470947287977
0.0374,-13.4998203321,-0.0470947287977
0.0376,-14.9966672514,-0.0470947287977
0.0378,-15.743915792,-0.0470947287977
0.038,-15.4454863434,-0.0470947287977
0.0382,-14.2846662835,-0.0470947287977
0.0384,-12.6374297208,-0.0470947287977
0.0386,-10.5061264934,-0.0470947287977
0.0388,-8.18683621183,-0.0470947287977
0.039,-5.9027935029,-0.0470947287977
0.0392,-4.18271195667,-0.0470947287977
0.0394,-3.09708671848,-0.0470947287977
0.0396,-2.08665630198,-0.0470947287977
0.0398,-0.514614560961,-0.0470947287977
0.04,0.907037536672,-0.0470947287977
0.0402,1.87987054233,-0.0470947287977
0.0404,3.11353558573,-0.0470947287977
0.0406,4.27435564561,-0.0470947287977
0.0408,4.83596697013,-0.0470947287977
0.041,4.61038250505,-0.0470947287977
0.0412,3.78793914279,-0.0470947287977
0.0414,2.44148186684,-0.0470947287977
0.0416,1.28066180696,-0.0470947287977
0.0418,0.608608088078,-0.0470947287977
0.042,-0.29137993406,-0.0470947287977
0.0422,-1.22661552887,-0.0470947287977
0.0424,-1.71303203169,-0.0470947287977
0.0426,-2.12425371283,-0.0470947287977
0.0428,-2.76105985904,-0.0470947287977
0.043,-3.58350322131,-0.0470947287977
0.0432,-4.44354399442,-0.0470947287977
0.0434,-4.96755790809,-0.0470947287977
0.0436,-4.85476567555,-0.0470947287977
0.0438,-4.40594658357,-0.0470947287977
0.044,-3.47071098877,-0.0470947287977
0.0442,-1.75062944254,-0.0470947287977
0.0444,-0.0657954689814,-0.0470947287977
0.0446,1.31825921781,-0.0470947287977
0.0448,2.70231390459,-0.0470947287977
0.045,3.59995208855,-0.0470947287977
0.0452,4.19916082392,-0.0470947287977
0.0454,4.79836955928,-0.0470947287977
0.0456,5.09679900788,-0.0470947287977
0.0458,5.20959124042,-0.0470947287977
0.046,5.84639738663,-0.0470947287977
0.0462,6.6688407489,-0.0470947287977
0.0464,6.96962003567,-0.0470947287977
0.0466,6.89442521398,-0.0470947287977
0.0468,6.6688407489,-0.0470947287977
0.047,5.95918961917,-0.0470947287977
0.0472,5.09679900788,-0.0470947287977
0.0474,4.01352360786,-0.0470947287977
0.0476,2.70231390459,-0.0470947287977
0.0478,1.61903850458,-0.0470947287977
0.048,1.05742718006,-0.0470947287977
0.0482,0.608608088078,-0.0470947287977
0.0484,0.383023622999,-0.0470947287977
0.0486,0.270231390459,-0.0470947287977
0.0488,0.420621033845,-0.0470947287977
0.049,0.907037536672,-0.0470947287977
0.0492,1.43105145034,-0.0470947287977
0.0494,1.72948089894,-0.0470947287977
0.0496,2.47907927769,-0.0470947287977
0.0498,3.45191228334,-0.0470947287977
0.05,4.31195305646,-0.0470947287977
0.0502,5.17199382957,-0.0470947287977
0.0504,6.06963201353,-0.0470947287977
0.0506,6.78163298144,-0.0470947287977
0.0508,7.6792711654,-0.0470947287977
0.051,8.466466955,-0.0470947287977
0.0512,9.13852067388,-0.0470947287977
0.0514,9.66253458755,-0.0470947287977
0.0516,9.99856144699,-0.0470947287977
0.0518,10.2993407338,-0.0470947287977
0.052,10.3745355555,-0.0470947287977
0.0522,10.2993407338,-0.0470947287977
0.0524,10.0361588578,-0.0470947287977
0.0526,9.7001319984,-0.0470947287977
0.0528,9.21371549557,-0.0470947287977
0.053,8.466466955,-0.0470947287977
0.0532,7.94245304132,-0.0470947287977
0.0534,7.6040763437,-0.0470947287977
0.0536,7.00721744652,-0.0470947287977
0.0538,6.52080094369,-0.0470947287977
0.054,6.06963201353,-0.0470947287977
0.0542,5.69600774324,-0.0470947287977
0.0544,5.62081292155,-0.0470947287977
0.0546,5.6584103324,-0.0470947287977
0.0548,5.77120256494,-0.0470947287977
0.055,5.80879997578,-0.0470947287977
0.0552,5.95918961917,-0.0470947287977
0.0554,6.33281388946,-0.0470947287977
0.0556,6.55604851636,-0.0470947287977
0.0558,6.70643815974,-0.0470947287977
0.056,6.96962003567,-0.0470947287977
0.0562,7.41843912765,-0.0470947287977
0.0564,7.79206339794,-0.0470947287977
0.0566,8.05289543569,-0.0470947287977
0.0568,8.50406436584,-0.0470947287977
0.057,8.95288345782,-0.0470947287977
0.0572,9.06332585218,-0.0470947287977
0.0574,9.02572844134,-0.0470947287977
0.0576,8.57690934936,-0.0470947287977
0.0578,7.79206339794,-0.0470947287977
0.058,7.00721744652,-0.0470947287977
0.0582,6.25761906776,-0.0470947287977
0.0584,5.28478606211,-0.0470947287977
0.0586,4.31195305646,-0.0470947287977
0.0588,3.59995208855,-0.0470947287977
0.059,2.92789836967,-0.0470947287977
0.0592,1.91746795317,-0.0470947287977
0.0594,1.01982976921,-0.0470947287977
0.0596,-0.0281980581349,-0.0470947287977
0.0598,-1.18901811802,-0.0470947287977
0.06,-2.19944853452,-0.0470947287977
0.0602,-3.28272393454,-0.0470947287977
0.0604,-4.06991972413,-0.0470947287977
0.0606,-4.55633622696,-0.0470947287977
0.0608,-5.08035014063,-0.0470947287977
0.061,-5.49157182177,-0.0470947287977
0.0612,-5.75240385951,-0.0470947287977
0.0614,-6.09078055713,-0.0470947287977
0.0616,-6.31401518403,-0.0470947287977
0.0618,-6.31401518403,-0.0470947287977
0.062,-6.35161259488,-0.0470947287977
0.0622,-6.53959964911,-0.0470947287977
0.0624,-6.31401518403,-0.0470947287977
0.0626,-5.97798832459,-0.0470947287977
0.0628,-5.97798832459,-0.0470947287977
0.063,-5.9027935029,-0.0470947287977
0.0632,-5.94039091375,-0.0470947287977
0.0634,-6.31401518403,-0.0470947287977
0.0636,-6.65239188165,-0.0470947287977
0.0638,-7.10121097363,-0.0470947287977
0.064,-7.73566728167,-0.0470947287977
0.0642,-8.03644656844,-0.0470947287977
0.0644,-8.41007083873,-0.0470947287977
0.0646,-8.78369510901,-0.0470947287977
0.0648,-9.12207180663,-0.0470947287977
0.065,-9.57089089861,-0.0470947287977
0.0652,-10.0949048123,-0.0470947287977
0.0654,-10.6917637095,-0.0470947287977
0.0656,-11.4789594991,-0.0470947287977
0.0658,-12.3014028613,-0.0470947287977
0.066,-12.825416775,-0.0470947287977
0.0662,-12.9006115967,-0.0470947287977
0.0664,-12.9758064184,-0.0470947287977
0.0666,-12.7878193642,-0.0470947287977
0.0668,-12.3014028613,-0.0470947287977
0.067,-11.8901811802,-0.0470947287977
0.0672,-11.4789594991,-0.0470947287977
0.0674,-10.8797507637,-0.0470947287977
0.0676,-10.35573685,-0.0470947287977
0.0678,-9.90691775805,-0.0470947287977
0.068,-9.34530643353,-0.0470947287977
0.0682,-8.59805789296,-0.0470947287977
0.0684,-7.88605692505,-0.0470947287977
0.0686,-7.06361356279,-0.0470947287977
0.0688,-6.16597537883,-0.0470947287977
0.069,-5.45397441092,-0.0470947287977
0.0692,-4.96755790809,-0.0470947287977
0.0694,-4.59393363781,-0.0470947287977
0.0696,-4.29315435103,-0.0470947287977
0.0698,-3.91953008075,-0.0470947287977
0.07,-3.80673784821,-0.0470947287977
0.0702,-3.91953008075,-0.0470947287977
0.0704,-3.77149027554,-0.0470947287977
0.0706,-3.69629545385,-0.0470947287977
0.0708,-3.99472490244,-0.0470947287977
0.071,-4.14511454583,-0.0470947287977
0.0712,-4.18271195667,-0.0470947287977
0.0714,-4.51873881611,-0.0470947287977
0.0716,-4.8923630864,-0.0470947287977
0.0718,-4.81716826471,-0.0470947287977
0.072,-4.6691284595,-0.0470947287977
0.0722,-4.29315435103,-0.0470947287977
0.0724,-3.69629545385,-0.0470947287977
0.0726,-3.17228154017,-0.0470947287977
0.0728,-2.72346244819,-0.0470947287977
0.073,-2.08665630198,-0.0470947287977
0.0732,-1.41225274492,-0.0470947287977
0.0734,-0.777796436887,-0.0470947287977
0.0736,-0.140990290674,-0.0470947287977
0.0738,0.719050482439,-0.0470947287977
0.074,1.69188348809,-0.0470947287977
0.0742,2.70231390459,-0.0470947287977
0.0744,3.6375494994,-0.0470947287977
0.0746,4.46234269984,-0.0470947287977
0.0748,5.13439641873,-0.0470947287977
0.075,5.54796793804,-0.0470947287977
0.0752,5.73360515409,-0.0470947287977
0.0754,5.88399479748,-0.0470947287977
0.0756,5.95918961917,-0.0470947287977
0.0758,5.99678703002,-0.0470947287977
0.076,5.92159220832,-0.0470947287977
0.0762,5.69600774324,-0.0470947287977
0.0764,5.3599808838,-0.0470947287977
0.0766,5.06155143521,-0.0470947287977
0.0768,4.76077214844,-0.0470947287977
0.077,4.424745289,-0.0470947287977
0.0772,4.01352360786,-0.0470947287977
0.0774,3.71274432109,-0.0470947287977
0.0776,3.56470451588,-0.0470947287977
0.0778,3.48950969419,-0.0470947287977
0.078,3.56470451588,-0.0470947287977
0.0782,3.75034173194,-0.0470947287977
0.0784,3.86313396448,-0.0470947287977
0.0786,4.05112101871,-0.0470947287977
0.0788,4.424745289,-0.0470947287977
0.079,4.87356438098,-0.0470947287977
0.0792,5.39757829465,-0.0470947287977
0.0794,6.06963201353,-0.0470947287977
0.0796,6.85682780313,-0.0470947287977
0.0798,7.49363394934,-0.0470947287977
0.08,8.09049284653,-0.0470947287977
0.0802,8.72729899274,-0.0470947287977
0.0804,9.25131290642,-0.0470947287977
0.0806,9.58733976586,-0.0470947287977
0.0808,9.7001319984,-0.0470947287977
0.081,9.73772940924,-0.0470947287977
0.0812,9.77532682009,-0.0470947287977
0.0814,9.66253458755,-0.0470947287977
0.0816,9.4768973715,-0.0470947287977
0.0818,9.25131290642,-0.0470947287977
0.082,8.80249381444,-0.0470947287977
0.0822,8.24088248992,-0.0470947287977
0.0824,7.75446598709,-0.0470947287977
0.0826,7.30564689511,-0.0470947287977
0.0828,6.70643815974,-0.0470947287977
0.083,6.29521647861,-0.0470947287977
0.0832,5.95918961917,-0.0470947287977
0.0834,5.51037052719,-0.0470947287977
0.0836,5.28478606211,-0.0470947287977
0.0838,5.20959124042,-0.0470947287977
0.084,5.20959124042,-0.0470947287977
0.0842,5.24718865126,-0.0470947287977
0.0844,5.3599808838,-0.0470947287977
0.0846,5.62081292155,-0.0470947287977
0.0848,6.06963201353,-0.0470947287977
0.085,6.59364592721,-0.0470947287977
0.0852,7.19285466257,-0.0470947287977
0.0854,7.6040763437,-0.0470947287977
0.0856,7.90485563048,-0.0470947287977
0.0858,8.12809025738,-0.0470947287977
0.086,8.31607731161,-0.0470947287977
0.0862,8.466466955,-0.0470947287977
0.0864,8.3912721333,-0.0470947287977
0.0866,8.31607731161,-0.0470947287977
0.0868,8.12809025738,-0.0470947287977
0.087,7.75446598709,-0.0470947287977
0.0872,7.34324430596,-0.0470947287977
0.0874,6.78163298144,-0.0470947287977
0.0876,6.10722942438,-0.0470947287977
0.0878,5.28478606211,-0.0470947287977
0.088,4.3495504673,-0.0470947287977
0.0882,3.48950969419,-0.0470947287977
0.0884,2.70231390459,-0.0470947287977
0.0886,1.87987054233,-0.0470947287977
0.0888,1.35585662865,-0.0470947287977
0.089,0.719050482439,-0.0470947287977
0.0892,0.122191585251,-0.0470947287977
0.0894,-0.253782523214,-0.0470947287977
0.0896,-0.589809382654,-0.0470947287977
0.0898,-0.815393847734,-0.0470947287977
0.09,-0.925836242095,-0.0470947287977
0.0902,-1.07622588548,-0.0470947287977
0.0904,-1.11382329633,-0.0470947287977
0.0906,-0.925836242095,-0.0470947287977
0.0908,-0.665004204347,-0.0470947287977
0.091,-0.439419739268,-0.0470947287977
0.0912,-0.328977344907,-0.0470947287977
0.0914,-0.364224917575,-0.0470947287977
0.0916,-0.589809382654,-0.0470947287977
0.0918,-0.888238831249,-0.0470947287977
0.092,-1.11382329633,-0.0470947287977
0.0922,-1.41225274492,-0.0470947287977
0.0924,-1.78822685339,-0.0470947287977
0.0926,-2.23704594537,-0.0470947287977
0.0928,-2.94669707509,-0.0470947287977
0.093,-3.62110063215,-0.0470947287977
0.0932,-4.25790677837,-0.0470947287977
0.0934,-5.15554496233,-0.0470947287977
0.0936,-6.16597537883,-0.0470947287977
0.0938,-7.13880838448,-0.0470947287977
0.094,-8.07404397929,-0.0470947287977
0.0942,-8.82129251986,-0.0470947287977
0.0944,-9.38290384438,-0.0470947287977
0.0946,-9.79412552551,-0.0470947287977
0.0948,-10.2053472066,-0.0470947287977
0.095,-10.5061264934,-0.0470947287977
0.0952,-10.6917637095,-0.0470947287977
0.0954,-10.8421533529,-0.0470947287977
0.0956,-10.8797507637,-0.0470947287977
0.0958,-10.7669585312,-0.0470947287977
0.096,-10.5437239043,-0.0470947287977
0.0962,-10.3181394392,-0.0470947287977
0.0964,-9.9445151689,-0.0470947287977
0.0966,-9.49569607692,-0.0470947287977
0.0968,-9.00927957409,-0.0470947287977
0.097,-8.59805789296,-0.0470947287977
0.0972,-8.41007083873,-0.0470947287977
0.0974,-8.29727860619,-0.0470947287977
0.0976,-8.18683621183,-0.0470947287977
0.0978,-8.11164139013,-0.0470947287977
0.098,-7.99884915759,-0.0470947287977
0.0982,-7.99884915759,-0.0470947287977
0.0984,-8.14923880098,-0.0470947287977
0.0986,-8.37247342788,-0.0470947287977
0.0988,-8.63565530381,-0.0470947287977
0.099,-8.97168216325,-0.0470947287977
0.0992,-9.30770902269,-0.0470947287977
0.0994,-9.49569607692,-0.0470947287977
0.0996,-9.75652811467,-0.0470947287977
0.0998,-9.90691775805,-0.0470947287977
0.1,-9.90691775805,-0.0470947287977
0.1002,-9.79412552551,-0.0470947287977
0.1004,-9.57089089861,-0.0470947287977
0.1006,-9.30770902269,-0.0470947287977
0.1008,-9.15966921748,-0.0470947287977
0.101,-8.89648734155,-0.0470947287977
0.1012,-8.41007083873,-0.0470947287977
0.1014,-7.77326469251,-0.0470947287977
0.1016,-7.10121097363,-0.0470947287977
0.1018,-6.35161259488,-0.0470947287977
0.102,-5.60436405431,-0.0470947287977
0.1022,-4.96755790809,-0.0470947287977
0.1024,-4.25790677837,-0.0470947287977
0.1026,-3.62110063215,-0.0470947287977
0.1028,-3.17228154017,-0.0470947287977
0.103,-2.68586503735,-0.0470947287977
0.1032,-2.27464335621,-0.0470947287977
0.1034,-1.93626665859,-0.0470947287977
0.1036,-1.56264238831,-0.0470947287977
0.1038,-1.22661552887,-0.0470947287977
0.104,-0.925836242095,-0.0470947287977
0.1042,-0.815393847734,-0.0470947287977
0.1044,-0.888238831249,-0.0470947287977
0.1046,-0.963433652942,-0.0470947287977
0.1048,-1.00103106379,-0.0470947287977
0.105,-0.963433652942,-0.0470947287977
0.1052,-0.888238831249,-0.0470947287977
0.1054,-0.777796436887,-0.0470947287977
0.1056,-0.514614560961,-0.0470947287977
0.1058,-0.216185112367,-0.0470947287977
0.106,0.122191585251,-0.0470947287977
0.1062,0.495815855538,-0.0470947287977
0.1064,0.794245304132,-0.0470947287977
0.1066,1.0950245909,-0.0470947287977
0.1068,1.3934540395,-0.0470947287977
0.107,1.87987054233,-0.0470947287977
0.1072,2.51667668854,-0.0470947287977
0.1074,3.22632781827,-0.0470947287977
0.1076,3.90073137532,-0.0470947287977
0.1078,4.38714787815,-0.0470947287977
0.108,4.76077214844,-0.0470947287977
0.1082,5.17199382957,-0.0470947287977
0.1084,5.47277311634,-0.0470947287977
0.1086,5.73360515409,-0.0470947287977
0.1088,5.80879997578,-0.0470947287977
0.109,5.95918961917,-0.0470947287977
0.1092,6.06963201353,-0.0470947287977
0.1094,6.22002165692,-0.0470947287977
0.1096,6.40800871115,-0.0470947287977
0.1098,6.445606122,-0.0470947287977
0.11,6.3704113003,-0.0470947287977
0.1102,6.22002165692,-0.0470947287977
0.1104,5.99678703002,-0.0470947287977
0.1106,5.84639738663,-0.0470947287977
0.1108,5.80879997578,-0.0470947287977
0.111,5.88399479748,-0.0470947287977
0.1112,6.06963201353,-0.0470947287977
0.1114,6.14482683523,-0.0470947287977
0.1116,6.22002165692,-0.0470947287977
0.1118,6.40800871115,-0.0470947287977
0.112,6.55604851636,-0.0470947287977
0.1122,6.6688407489,-0.0470947287977
0.1124,6.6688407489,-0.0470947287977
0.1126,6.78163298144,-0.0470947287977
0.1128,7.00721744652,-0.0470947287977
0.113,7.3808417168,-0.0470947287977
0.1132,7.75446598709,-0.0470947287977
0.1134,8.09049284653,-0.0470947287977
0.1136,8.20328507907,-0.0470947287977
0.1138,8.24088248992,-0.0470947287977
0.114,8.24088248992,-0.0470947287977
0.1142,8.09049284653,-0.0470947287977
0.1144,8.01529802484,-0.0470947287977
0.1146,8.01529802484,-0.0470947287977
0.1148,7.86725821963,-0.0470947287977
0.115,7.75446598709,-0.0470947287977
0.1152,7.71686857624,-0.0470947287977
0.1154,7.64167375455,-0.0470947287977
0.1156,7.49363394934,-0.0470947287977
0.1158,7.19285466257,-0.0470947287977
0.116,6.78163298144,-0.0470947287977
0.1162,6.445606122,-0.0470947287977
0.1164,6.18242424607,-0.0470947287977
0.1166,6.06963201353,-0.0470947287977
0.1168,5.99678703002,-0.0470947287977
0.117,5.99678703002,-0.0470947287977
0.1172,5.88399479748,-0.0470947287977
0.1174,5.69600774324,-0.0470947287977
0.1176,5.6584103324,-0.0470947287977
0.1178,5.47277311634,-0.0470947287977
0.118,5.32238347296,-0.0470947287977
0.1182,5.20959124042,-0.0470947287977
0.1184,5.06155143521,-0.0470947287977
0.1186,4.94875920267,-0.0470947287977
0.1188,5.02395402436,-0.0470947287977
0.119,5.02395402436,-0.0470947287977
0.1192,4.87356438098,-0.0470947287977
0.1194,4.61038250505,-0.0470947287977
0.1196,4.27435564561,-0.0470947287977
0.1198,3.78793914279,-0.0470947287977
0.12,3.48950969419,-0.0470947287977
0.1202,3.22632781827,-0.0470947287977
0.1204,2.96549578052,-0.0470947287977
0.1206,2.73991131544,-0.0470947287977
0.1208,2.36628704515,-0.0470947287977
0.121,1.91746795317,-0.0470947287977
0.1212,1.61903850458,-0.0470947287977
0.1214,1.20546698527,-0.0470947287977
0.1216,0.681453071593,-0.0470947287977
0.1218,0.232633979613,-0.0470947287977
0.122,-0.216185112367,-0.0470947287977
0.1222,-0.627406793501,-0.0470947287977
0.1224,-0.850641420402,-0.0470947287977
0.1226,-0.963433652942,-0.0470947287977
0.1228,-1.30181035056,-0.0470947287977
0.123,-1.60023979915,-0.0470947287977
0.1232,-1.93626665859,-0.0470947287977
0.1234,-2.49787798311,-0.0470947287977
0.1236,-2.8715022534,-0.0470947287977
0.1238,-3.05948930763,-0.0470947287977
0.124,-3.32032134538,-0.0470947287977
0.1242,-3.58350322131,-0.0470947287977
0.1244,-3.77149027554,-0.0470947287977
0.1246,-3.91953008075,-0.0470947287977
0.1248,-4.10751713498,-0.0470947287977
0.125,-4.33075176188,-0.0470947287977
0.1252,-4.6691284595,-0.0470947287977
0.1254,-5.00515531894,-0.0470947287977
0.1256,-5.30358476753,-0.0470947287977
0.1258,-5.49157182177,-0.0470947287977
0.126,-5.60436405431,-0.0470947287977
0.1262,-5.60436405431,-0.0470947287977
0.1264,-5.82759868121,-0.0470947287977
0.1266,-6.05318314629,-0.0470947287977
0.1268,-6.27641777319,-0.0470947287977
0.127,-6.53959964911,-0.0470947287977
0.1272,-6.80043168686,-0.0470947287977
0.1274,-6.98841874109,-0.0470947287977
0.1276,-7.13880838448,-0.0470947287977
0.1278,-7.28684818969,-0.0470947287977
0.128,-7.39964042223,-0.0470947287977
0.1282,-7.28684818969,-0.0470947287977
0.1284,-7.24925077884,-0.0470947287977
0.1286,-7.36204301138,-0.0470947287977
0.1288,-7.47483524392,-0.0470947287977
0.129,-7.700419709,-0.0470947287977
0.1292,-7.84845951421,-0.0470947287977
0.1294,-7.84845951421,-0.0470947287977
0.1296,-7.73566728167,-0.0470947287977
0.1298,-7.58762747646,-0.0470947287977
0.13,-7.51243265477,-0.0470947287977
0.1302,-7.36204301138,-0.0470947287977
0.1304,-7.17640579533,-0.0470947287977
0.1306,-7.10121097363,-0.0470947287977
0.1308,-6.95082133025,-0.0470947287977
0.131,-6.87562650855,-0.0470947287977
0.1312,-6.76283427601,-0.0470947287977
0.1314,-6.61479447081,-0.0470947287977
0.1316,-6.35161259488,-0.0470947287977
0.1318,-6.01558573544,-0.0470947287977
0.132,-5.679558876,-0.0470947287977
0.1322,-5.41637700007,-0.0470947287977
0.1324,-5.26598735669,-0.0470947287977
0.1326,-5.19314237317,-0.0470947287977
0.1328,-5.11794755148,-0.0470947287977
0.133,-4.96755790809,-0.0470947287977
0.1332,-4.70672587035,-0.0470947287977
0.1334,-4.55633622696,-0.0470947287977
0.1336,-4.36834917273,-0.0470947287977
0.1338,-4.10751713498,-0.0470947287977
0.134,-3.84433525905,-0.0470947287977
0.1342,-3.658698043,-0.0470947287977
0.1344,-3.47071098877,-0.0470947287977
0.1346,-3.35791875623,-0.0470947287977
0.1348,-3.35791875623,-0.0470947287977
0.135,-3.17228154017,-0.0470947287977
0.1352,-2.8715022534,-0.0470947287977
0.1354,-2.38508575057,-0.0470947287977
0.1356,-1.97386406944,-0.0470947287977
0.1358,-1.60023979915,-0.0470947287977
0.136,-1.33705792323,-0.0470947287977
0.1362,-1.11382329633,-0.0470947287977
0.1364,-0.850641420402,-0.0470947287977
0.1366,-0.589809382654,-0.0470947287977
0.1368,-0.29137993406,-0.0470947287977
0.137,-0.0657954689814,-0.0470947287977
0.1372,0.232633979613,-0.0470947287977
0.1374,0.608608088078,-0.0470947287977
0.1376,0.982232358365,-0.0470947287977
0.1378,1.31825921781,-0.0470947287977
0.138,1.50624627204,-0.0470947287977
0.1382,1.61903850458,-0.0470947287977
0.1384,1.65428607725,-0.0470947287977
0.1386,1.72948089894,-0.0470947287977
0.1388,1.91746795317,-0.0470947287977
0.139,2.21589740177,-0.0470947287977
0.1392,2.51667668854,-0.0470947287977
0.1394,2.70231390459,-0.0470947287977
0.1396,2.81510613713,-0.0470947287977
0.1398,2.96549578052,-0.0470947287977
0.14,3.07828801306,-0.0470947287977
0.1402,3.22632781827,-0.0470947287977
0.1404,3.26392522911,-0.0470947287977
0.1406,3.30152263996,-0.0470947287977
0.1408,3.48950969419,-0.0470947287977
0.141,3.75034173194,-0.0470947287977
0.1412,4.08636859138,-0.0470947287977
0.1414,4.38714787815,-0.0470947287977
0.1416,4.57513493238,-0.0470947287977
0.1418,4.61038250505,-0.0470947287977
0.142,4.6479799159,-0.0470947287977
0.1422,4.68557732675,-0.0470947287977
0.1424,4.79836955928,-0.0470947287977
0.1426,4.98635661352,-0.0470947287977
0.1428,5.09679900788,-0.0470947287977
0.143,5.20959124042,-0.0470947287977
0.1432,5.32238347296,-0.0470947287977
0.1434,5.3599808838,-0.0470947287977
0.1436,5.39757829465,-0.0470947287977
0.1438,5.39757829465,-0.0470947287977
0.144,5.28478606211,-0.0470947287977
0.1442,5.02395402436,-0.0470947287977
0.1444,4.94875920267,-0.0470947287977
0.1446,4.98635661352,-0.0470947287977
0.1448,5.09679900788,-0.0470947287977
0.145,5.17199382957,-0.0470947287977
0.1452,5.13439641873,-0.0470947287977
0.1454,5.02395402436,-0.0470947287977
0.1456,4.87356438098,-0.0470947287977
0.1458,4.83596697013,-0.0470947287977
0.146,4.72317473759,-0.0470947287977
0.1462,4.68557732675,-0.0470947287977
0.1464,4.61038250505,-0.0470947287977
0.1466,4.61038250505,-0.0470947287977
0.1468,4.72317473759,-0.0470947287977
0.147,4.76077214844,-0.0470947287977
0.1472,4.76077214844,-0.0470947287977
0.1474,4.68557732675,-0.0470947287977
0.1476,4.46234269984,-0.0470947287977
0.1478,4.19916082392,-0.0470947287977
0.148,4.01352360786,-0.0470947287977
0.1482,4.01352360786,-0.0470947287977
0.1484,3.97592619702,-0.0470947287977
0.1486,3.86313396448,-0.0470947287977
0.1488,3.78793914279,-0.0470947287977
0.149,3.59995208855,-0.0470947287977
0.1492,3.4143148725,-0.0470947287977
0.1494,3.18873040742,-0.0470947287977
0.1496,2.92789836967,-0.0470947287977
0.1498,2.6271190829,-0.0470947287977
0.15,2.25349481261,-0.0470947287977
0.1502,2.1054550074,-0.0470947287977
0.1504,2.03026018571,-0.0470947287977
0.1506,2.03026018571,-0.0470947287977
0.1508,1.99266277486,-0.0470947287977
0.151,1.80467572063,-0.0470947287977
0.1512,1.50624627204,-0.0470947287977
0.1514,1.24306439611,-0.0470947287977
0.1516,1.01982976921,-0.0470947287977
0.1518,0.907037536672,-0.0470947287977
0.152,0.831842714979,-0.0470947287977
0.1522,0.681453071593,-0.0470947287977
0.1524,0.571010677231,-0.0470947287977
0.1526,0.495815855538,-0.0470947287977
0.1528,0.345426212152,-0.0470947287977
0.153,0.15743915792,-0.0470947287977
0.1532,-0.0657954689814,-0.0470947287977
0.1534,-0.401822328422,-0.0470947287977
0.1536,-0.777796436887,-0.0470947287977
0.1538,-1.00103106379,-0.0470947287977
0.154,-1.07622588548,-0.0470947287977
0.1542,-1.15142070717,-0.0470947287977
0.1544,-1.26421293971,-0.0470947287977
0.1546,-1.48744756661,-0.0470947287977
0.1548,-1.8610718369,-0.0470947287977
0.155,-2.19944853452,-0.0470947287977
0.1552,-2.30989092888,-0.0470947287977
0.1554,-2.53547539396,-0.0470947287977
0.1556,-2.76105985904,-0.0470947287977
0.1558,-2.83390484256,-0.0470947287977
0.156,-2.90909966425,-0.0470947287977
0.1562,-2.90909966425,-0.0470947287977
0.1564,-2.90909966425,-0.0470947287977
0.1566,-2.94669707509,-0.0470947287977
0.1568,-3.09708671848,-0.0470947287977
0.157,-3.28272393454,-0.0470947287977
0.1572,-3.47071098877,-0.0470947287977
0.1574,-3.50830839961,-0.0470947287977
0.1576,-3.50830839961,-0.0470947287977
0.1578,-3.47071098877,-0.0470947287977
0.158,-3.47071098877,-0.0470947287977
0.1582,-3.58350322131,-0.0470947287977
0.1584,-3.69629545385,-0.0470947287977
0.1586,-3.84433525905,-0.0470947287977
0.1588,-3.91953008075,-0.0470947287977
0.159,-4.06991972413,-0.0470947287977
0.1592,-4.22030936752,-0.0470947287977
0.1594,-4.29315435103,-0.0470947287977
0.1596,-4.29315435103,-0.0470947287977
0.1598,-4.22030936752,-0.0470947287977
0.16,-4.10751713498,-0.0470947287977
0.1602,-4.03232231329,-0.0470947287977
0.1604,-4.06991972413,-0.0470947287977
0.1606,-4.18271195667,-0.0470947287977
0.1608,-4.25790677837,-0.0470947287977
0.161,-4.22030936752,-0.0470947287977
0.1612,-4.06991972413,-0.0470947287977
0.1614,-3.8819326699,-0.0470947287977
0.1616,-3.73389286469,-0.0470947287977
0.1618,-3.58350322131,-0.0470947287977
0.162,-3.39551616707,-0.0470947287977
0.1622,-3.28272393454,-0.0470947287977
0.1624,-3.13468412933,-0.0470947287977
0.1626,-3.17228154017,-0.0470947287977
0.1628,-3.20987895102,-0.0470947287977
0.163,-3.24747636187,-0.0470947287977
0.1632,-3.13468412933,-0.0470947287977
0.1634,-2.90909966425,-0.0470947287977
0.1636,-2.72346244819,-0.0470947287977
0.1638,-2.53547539396,-0.0470947287977
0.164,-2.49787798311,-0.0470947287977
0.1642,-2.53547539396,-0.0470947287977
0.1644,-2.53547539396,-0.0470947287977
0.1646,-2.49787798311,-0.0470947287977
0.1648,-2.38508575057,-0.0470947287977
0.165,-2.27464335621,-0.0470947287977
0.1652,-2.12425371283,-0.0470947287977
0.1654,-1.97386406944,-0.0470947287977
0.1656,-1.71303203169,-0.0470947287977
0.1658,-1.41225274492,-0.0470947287977
0.166,-1.18901811802,-0.0470947287977
0.1662,-1.11382329633,-0.0470947287977
0.1664,-1.07622588548,-0.0470947287977
0.1666,-0.963433652942,-0.0470947287977
0.1668,-0.777796436887,-0.0470947287977
0.167,-0.477017150115,-0.0470947287977
0.1672,-0.178587701521,-0.0470947287977
0.1674,0.0469967635581,-0.0470947287977
0.1676,0.232633979613,-0.0470947287977
0.1678,0.383023622999,-0.0470947287977
0.168,0.495815855538,-0.0470947287977
0.1682,0.608608088078,-0.0470947287977
0.1684,0.608608088078,-0.0470947287977
0.1686,0.646205498924,-0.0470947287977
0.1688,0.681453071593,-0.0470947287977
0.169,0.831842714979,-0.0470947287977
0.1692,1.01982976921,-0.0470947287977
0.1694,1.20546698527,-0.0470947287977
0.1696,1.31825921781,-0.0470947287977
0.1698,1.31825921781,-0.0470947287977
0.17,1.20546698527,-0.0470947287977
0.1702,1.20546698527,-0.0470947287977
0.1704,1.28066180696,-0.0470947287977
0.1706,1.43105145034,-0.0470947287977
0.1708,1.61903850458,-0.0470947287977
0.171,1.76707830979,-0.0470947287977
0.1712,1.91746795317,-0.0470947287977
0.1714,2.06785759656,-0.0470947287977
0.1716,2.36628704515,-0.0470947287977
0.1718,2.47907927769,-0.0470947287977
0.172,2.55427409938,-0.0470947287977
0.1722,2.55427409938,-0.0470947287977
0.1724,2.6271190829,-0.0470947287977
0.1726,2.77750872629,-0.0470947287977
0.1728,3.04069060221,-0.0470947287977
0.173,3.22632781827,-0.0470947287977
0.1732,3.30152263996,-0.0470947287977
0.1734,3.30152263996,-0.0470947287977
0.1736,3.22632781827,-0.0470947287977
0.1738,3.18873040742,-0.0470947287977
0.174,3.18873040742,-0.0470947287977
0.1742,3.15113299657,-0.0470947287977
0.1744,3.11353558573,-0.0470947287977
0.1746,3.15113299657,-0.0470947287977
0.1748,3.15113299657,-0.0470947287977
0.175,3.15113299657,-0.0470947287977
0.1752,3.18873040742,-0.0470947287977
0.1754,3.11353558573,-0.0470947287977
0.1756,2.92789836967,-0.0470947287977
0.1758,2.77750872629,-0.0470947287977
0.176,2.66471649375,-0.0470947287977
0.1762,2.6271190829,-0.0470947287977
0.1764,2.77750872629,-0.0470947287977
0.1766,2.81510613713,-0.0470947287977
0.1768,2.85270354798,-0.0470947287977
0.177,2.81510613713,-0.0470947287977
0.1772,2.77750872629,-0.0470947287977
0.1774,2.70231390459,-0.0470947287977
0.1776,2.66471649375,-0.0470947287977
0.1778,2.59187151023,-0.0470947287977
0.178,2.51667668854,-0.0470947287977
0.1782,2.47907927769,-0.0470947287977
0.1784,2.47907927769,-0.0470947287977
0.1786,2.55427409938,-0.0470947287977
0.1788,2.59187151023,-0.0470947287977
0.179,2.51667668854,-0.0470947287977
0.1792,2.17829999092,-0.0470947287977
0.1794,1.87987054233,-0.0470947287977
0.1796,1.69188348809,-0.0470947287977
0.1798,1.58144109373,-0.0470947287977
0.18,1.46864886119,-0.0470947287977
0.1802,1.43105145034,-0.0470947287977
0.1804,1.31825921781,-0.0470947287977
0.1806,1.20546698527,-0.0470947287977
0.1808,1.0950245909,-0.0470947287977
0.181,0.907037536672,-0.0470947287977
0.1812,0.681453071593,-0.0470947287977
0.1814,0.458218444692,-0.0470947287977
0.1816,0.232633979613,-0.0470947287977
0.1818,0.0845941744046,-0.0470947287977
0.182,0.0845941744046,-0.0470947287977
0.1822,0.122191585251,-0.0470947287977
0.1824,0.15743915792,-0.0470947287977
0.1826,0.0845941744046,-0.0470947287977
0.1828,-0.0281980581349,-0.0470947287977
0.183,-0.253782523214,-0.0470947287977
0.1832,-0.401822328422,-0.0470947287977
0.1834,-0.477017150115,-0.0470947287977
0.1836,-0.514614560961,-0.0470947287977
0.1838,-0.627406793501,-0.0470947287977
0.184,-0.627406793501,-0.0470947287977
0.1842,-0.627406793501,-0.0470947287977
0.1844,-0.589809382654,-0.0470947287977
0.1846,-0.627406793501,-0.0470947287977
0.1848,-0.777796436887,-0.0470947287977
0.185,-1.03862847463,-0.0470947287977
0.1852,-1.30181035056,-0.0470947287977
0.1854,-1.52504497746,-0.0470947287977
0.1856,-1.52504497746,-0.0470947287977
0.1858,-1.56264238831,-0.0470947287977
0.186,-1.56264238831,-0.0470947287977
0.1862,-1.60023979915,-0.0470947287977
0.1864,-1.75062944254,-0.0470947287977
0.1866,-1.89866924775,-0.0470947287977
0.1868,-1.97386406944,-0.0470947287977
0.187,-2.16185112367,-0.0470947287977
0.1872,-2.34748833973,-0.0470947287977
0.1874,-2.49787798311,-0.0470947287977
0.1876,-2.49787798311,-0.0470947287977
0.1878,-2.34748833973,-0.0470947287977
0.188,-2.19944853452,-0.0470947287977
0.1882,-2.08665630198,-0.0470947287977
0.1884,-2.08665630198,-0.0470947287977
0.1886,-2.23704594537,-0.0470947287977
0.1888,-2.42268316142,-0.0470947287977
0.189,-2.42268316142,-0.0470947287977
0.1892,-2.34748833973,-0.0470947287977
0.1894,-2.23704594537,-0.0470947287977
0.1896,-2.16185112367,-0.0470947287977
0.1898,-2.04905889113,-0.0470947287977
0.19,-2.01146148029,-0.0470947287977
0.1902,-2.01146148029,-0.0470947287977
0.1904,-2.04905889113,-0.0470947287977
0.1906,-2.16185112367,-0.0470947287977
0.1908,-2.34748833973,-0.0470947287977
0.191,-2.53547539396,-0.0470947287977
0.1912,-2.53547539396,-0.0470947287977
0.1914,-2.38508575057,-0.0470947287977
0.1916,-2.19944853452,-0.0470947287977
0.1918,-2.04905889113,-0.0470947287977
0.192,-2.04905889113,-0.0470947287977
0.1922,-2.12425371283,-0.0470947287977
0.1924,-2.19944853452,-0.0470947287977
0.1926,-2.19944853452,-0.0470947287977
0.1928,-2.19944853452,-0.0470947287977
0.193,-2.12425371283,-0.0470947287977
0.1932,-1.97386406944,-0.0470947287977
0.1934,-1.8610718369,-0.0470947287977
0.1936,-1.63783721,-0.0470947287977
0.1938,-1.41225274492,-0.0470947287977
0.194,-1.26421293971,-0.0470947287977
0.1942,-1.22661552887,-0.0470947287977
0.1944,-1.26421293971,-0.0470947287977
0.1946,-1.26421293971,-0.0470947287977
0.1948,-1.22661552887,-0.0470947287977
0.195,-1.11382329633,-0.0470947287977
0.1952,-0.850641420402,-0.0470947287977
0.1954,-0.702601615194,-0.0470947287977
0.1956,-0.627406793501,-0.0470947287977
0.1958,-0.627406793501,-0.0470947287977
0.196,-0.589809382654,-0.0470947287977
0.1962,-0.589809382654,-0.0470947287977
0.1964,-0.589809382654,-0.0470947287977
0.1966,-0.589809382654,-0.0470947287977
0.1968,-0.627406793501,-0.0470947287977
0.197,-0.514614560961,-0.0470947287977
0.1972,-0.364224917575,-0.0470947287977
0.1974,-0.178587701521,-0.0470947287977
0.1976,-0.0281980581349,-0.0470947287977
0.1978,-0.0281980581349,-0.0470947287977
0.198,-0.0281980581349,-0.0470947287977
0.1982,-0.0281980581349,-0.0470947287977
0.1984,0.0469967635581,-0.0470947287977
0.1986,0.195036568766,-0.0470947287977
0.1988,0.420621033845,-0.0470947287977
0.199,0.608608088078,-0.0470947287977
0.1992,0.681453071593,-0.0470947287977
0.1994,0.831842714979,-0.0470947287977
0.1996,0.982232358365,-0.0470947287977
0.1998,1.05742718006,-0.0470947287977
0.2,1.05742718006,-0.0470947287977
0.2002,1.05742718006,-0.0470947287977
0.2004,1.05742718006,-0.0470947287977
0.2006,1.13262200175,-0.0470947287977
0.2008,1.28066180696,-0.0470947287977
0.201,1.46864886119,-0.0470947287977
0.2012,1.50624627204,-0.0470947287977
0.2014,1.50624627204,-0.0470947287977
0.2016,1.43105145034,-0.0470947287977
0.2018,1.31825921781,-0.0470947287977
0.202,1.28066180696,-0.0470947287977
0.2022,1.31825921781,-0.0470947287977
0.2024,1.35585662865,-0.0470947287977
0.2026,1.43105145034,-0.0470947287977
0.2028,1.46864886119,-0.0470947287977
0.203,1.58144109373,-0.0470947287977
0.2032,1.69188348809,-0.0470947287977
0.2034,1.69188348809,-0.0470947287977
0.2036,1.65428607725,-0.0470947287977
0.2038,1.58144109373,-0.0470947287977
0.204,1.58144109373,-0.0470947287977
0.2042,1.61903850458,-0.0470947287977
0.2044,1.80467572063,-0.0470947287977
0.2046,1.99266277486,-0.0470947287977
0.2048,2.06785759656,-0.0470947287977
0.205,2.06785759656,-0.0470947287977
0.2052,2.06785759656,-0.0470947287977
0.2054,2.03026018571,-0.0470947287977
0.2056,1.99266277486,-0.0470947287977
0.2058,1.91746795317,-0.0470947287977
0.206,1.87987054233,-0.0470947287977
0.2062,1.84227313148,-0.0470947287977
0.2064,1.87987054233,-0.0470947287977
0.2066,1.91746795317,-0.0470947287977
0.2068,1.99266277486,-0.0470947287977
0.207,1.91746795317,-0.0470947287977
0.2072,1.80467572063,-0.0470947287977
0.2074,1.61903850458,-0.0470947287977
0.2076,1.3934540395,-0.0470947287977
0.2078,1.31825921781,-0.0470947287977
0.208,1.31825921781,-0.0470947287977
0.2082,1.3934540395,-0.0470947287977
0.2084,1.3934540395,-0.0470947287977
0.2086,1.31825921781,-0.0470947287977
0.2088,1.31825921781,-0.0470947287977
0.209,1.28066180696,-0.0470947287977
0.2092,1.16786957442,-0.0470947287977
0.2094,1.0950245909,-0.0470947287977
0.2096,0.982232358365,-0.0470947287977
0.2098,0.869440125825,-0.0470947287977
0.21,0.907037536672,-0.0470947287977
0.2102,1.01982976921,-0.0470947287977
0.2104,1.13262200175,-0.0470947287977
0.2106,1.0950245909,-0.0470947287977
0.2108,0.982232358365,-0.0470947287977
0.211,0.831842714979,-0.0470947287977
0.2112,0.646205498924,-0.0470947287977
0.2114,0.533413266385,-0.0470947287977
0.2116,0.533413266385,-0.0470947287977
0.2118,0.458218444692,-0.0470947287977
0.212,0.383023622999,-0.0470947287977
0.2122,0.345426212152,-0.0470947287977
0.2124,0.307828801306,-0.0470947287977
0.2126,0.270231390459,-0.0470947287977
0.2128,0.195036568766,-0.0470947287977
0.213,-0.0281980581349,-0.0470947287977
0.2132,-0.29137993406,-0.0470947287977
0.2134,-0.439419739268,-0.0470947287977
0.2136,-0.477017150115,-0.0470947287977
0.2138,-0.401822328422,-0.0470947287977
0.214,-0.364224917575,-0.0470947287977
0.2142,-0.364224917575,-0.0470947287977
0.2144,-0.439419739268,-0.0470947287977
0.2146,-0.552211971808,-0.0470947287977
0.2148,-0.627406793501,-0.0470947287977
0.215,-0.702601615194,-0.0470947287977
0.2152,-0.777796436887,-0.0470947287977
0.2154,-0.850641420402,-0.0470947287977
0.2156,-0.888238831249,-0.0470947287977
0.2158,-0.850641420402,-0.0470947287977
0.216,-0.740199026041,-0.0470947287977
0.2162,-0.665004204347,-0.0470947287977
0.2164,-0.702601615194,-0.0470947287977
0.2166,-0.850641420402,-0.0470947287977
0.2168,-1.03862847463,-0.0470947287977
0.217,-1.18901811802,-0.0470947287977
0.2172,-1.18901811802,-0.0470947287977
0.2174,-1.15142070717,-0.0470947287977
0.2176,-1.11382329633,-0.0470947287977
0.2178,-1.11382329633,-0.0470947287977
0.218,-1.15142070717,-0.0470947287977
0.2182,-1.18901811802,-0.0470947287977
0.2184,-1.22661552887,-0.0470947287977
0.2186,-1.30181035056,-0.0470947287977
0.2188,-1.41225274492,-0.0470947287977
0.219,-1.52504497746,-0.0470947287977
0.2192,-1.60023979915,-0.0470947287977
0.2194,-1.52504497746,-0.0470947287977
0.2196,-1.41225274492,-0.0470947287977
0.2198,-1.30181035056,-0.0470947287977
0.22,-1.30181035056,-0.0470947287977
0.2202,-1.37465533408,-0.0470947287977
0.2204,-1.48744756661,-0.0470947287977
0.2206,-1.52504497746,-0.0470947287977
0.2208,-1.48744756661,-0.0470947287977
0.221,-1.44985015577,-0.0470947287977
0.2212,-1.41225274492,-0.0470947287977
0.2214,-1.37465533408,-0.0470947287977
0.2216,-1.26421293971,-0.0470947287977
0.2218,-1.18901811802,-0.0470947287977
0.222,-1.11382329633,-0.0470947287977
0.2222,-1.11382329633,-0.0470947287977
0.2224,-1.18901811802,-0.0470947287977
0.2226,-1.30181035056,-0.0470947287977
0.2228,-1.33705792323,-0.0470947287977
0.223,-1.26421293971,-0.0470947287977
0.2232,-1.07622588548,-0.0470947287977
0.2234,-0.963433652942,-0.0470947287977
0.2236,-0.925836242095,-0.0470947287977
0.2238,-0.963433652942,-0.0470947287977
0.224,-1.00103106379,-0.0470947287977
0.2242,-1.03862847463,-0.0470947287977
0.2244,-1.03862847463,-0.0470947287977
0.2246,-1.03862847463,-0.0470947287977
0.2248,-1.03862847463,-0.0470947287977
0.225,-1.00103106379,-0.0470947287977
0.2252,-0.888238831249,-0.0470947287977
0.2254,-0.702601615194,-0.0470947287977
0.2256,-0.627406793501,-0.0470947287977
0.2258,-0.589809382654,-0.0470947287977
0.226,-0.589809382654,-0.0470947287977
0.2262,-0.627406793501,-0.0470947287977
0.2264,-0.627406793501,-0.0470947287977
0.2266,-0.552211971808,-0.0470947287977
0.2268,-0.364224917575,-0.0470947287977
0.227,-0.253782523214,-0.0470947287977
0.2272,-0.178587701521,-0.0470947287977
0.2274,-0.103392879828,-0.0470947287977
0.2276,-0.0281980581349,-0.0470947287977
0.2278,0.00939935271163,-0.0470947287977
0.228,0.0469967635581,-0.0470947287977
0.2282,0.00939935271163,-0.0470947287977
0.2284,-0.0281980581349,-0.0470947287977
0.2286,0.00939935271163,-0.0470947287977
0.2288,0.122191585251,-0.0470947287977
0.229,0.307828801306,-0.0470947287977
0.2292,0.420621033845,-0.0470947287977
0.2294,0.420621033845,-0.0470947287977
0.2296,0.383023622999,-0.0470947287977
0.2298,0.307828801306,-0.0470947287977
0.23,0.270231390459,-0.0470947287977
0.2302,0.307828801306,-0.0470947287977
0.2304,0.420621033845,-0.0470947287977
0.2306,0.458218444692,-0.0470947287977
0.2308,0.533413266385,-0.0470947287977
0.231,0.608608088078,-0.0470947287977
0.2312,0.681453071593,-0.0470947287977
0.2314,0.756647893286,-0.0470947287977
0.2316,0.719050482439,-0.0470947287977
0.2318,0.646205498924,-0.0470947287977
0.232,0.608608088078,-0.0470947287977
0.2322,0.608608088078,-0.0470947287977
0.2324,0.794245304132,-0.0470947287977
0.2326,0.907037536672,-0.0470947287977
0.2328,1.01982976921,-0.0470947287977
0.233,1.05742718006,-0.0470947287977
0.2332,1.01982976921,-0.0470947287977
0.2334,0.944634947518,-0.0470947287977
0.2336,0.907037536672,-0.0470947287977
0.2338,0.869440125825,-0.0470947287977
0.234,0.869440125825,-0.0470947287977
0.2342,0.831842714979,-0.0470947287977
0.2344,0.869440125825,-0.0470947287977
0.2346,0.944634947518,-0.0470947287977
0.2348,1.05742718006,-0.0470947287977
0.235,1.05742718006,-0.0470947287977
0.2352,0.944634947518,-0.0470947287977
0.2354,0.794245304132,-0.0470947287977
0.2356,0.681453071593,-0.0470947287977
0.2358,0.608608088078,-0.0470947287977
0.236,0.681453071593,-0.0470947287977
0.2362,0.756647893286,-0.0470947287977
0.2364,0.831842714979,-0.0470947287977
0.2366,0.831842714979,-0.0470947287977
0.2368,0.831842714979,-0.0470947287977
0.237,0.794245304132,-0.0470947287977
0.2372,0.794245304132,-0.0470947287977
0.2374,0.681453071593,-0.0470947287977
0.2376,0.608608088078,-0.0470947287977
0.2378,0.571010677231,-0.0470947287977
0.238,0.608608088078,-0.0470947287977
0.2382,0.719050482439,-0.0470947287977
0.2384,0.794245304132,-0.0470947287977
0.2386,0.831842714979,-0.0470947287977
0.2388,0.794245304132,-0.0470947287977
0.239,0.646205498924,-0.0470947287977
0.2392,0.533413266385,-0.0470947287977
0.2394,0.420621033845,-0.0470947287977
0.2396,0.420621033845,-0.0470947287977
0.2398,0.420621033845,-0.0470947287977
0.24,0.420621033845,-0.0470947287977
0.2402,0.420621033845,-0.0470947287977
0.2404,0.420621033845,-0.0470947287977
0.2406,0.383023622999,-0.0470947287977
0.2408,0.345426212152,-0.0470947287977
0.241,0.232633979613,-0.0470947287977
0.2412,0.0845941744046,-0.0470947287977
0.2414,-0.0281980581349,-0.0470947287977
0.2416,-0.0657954689814,-0.0470947287977
0.2418,0.00939935271163,-0.0470947287977
0.242,0.0845941744046,-0.0470947287977
0.2422,0.122191585251,-0.0470947287977
0.2424,0.0845941744046,-0.0470947287977
0.2426,0.00939935271163,-0.0470947287977
0.2428,-0.0657954689814,-0.0470947287977
0.243,-0.103392879828,-0.0470947287977
0.2432,-0.140990290674,-0.0470947287977
0.2434,-0.178587701521,-0.0470947287977
0.2436,-0.140990290674,-0.0470947287977
0.2438,-0.140990290674,-0.0470947287977
0.244,-0.0281980581349,-0.0470947287977
0.2442,-0.0281980581349,-0.0470947287977
0.2444,0.00939935271163,-0.0470947287977
0.2446,-0.103392879828,-0.0470947287977
0.2448,-0.253782523214,-0.0470947287977
0.245,-0.364224917575,-0.0470947287977
0.2452,-0.364224917575,-0.0470947287977
0.2454,-0.328977344907,-0.0470947287977
0.2456,-0.29137993406,-0.0470947287977
0.2458,-0.216185112367,-0.0470947287977
0.246,-0.216185112367,-0.0470947287977
0.2462,-0.328977344907,-0.0470947287977
0.2464,-0.328977344907,-0.0470947287977
0.2466,-0.364224917575,-0.0470947287977
0.2468,-0.477017150115,-0.0470947287977
0.247,-0.552211971808,-0.0470947287977
0.2472,-0.552211971808,-0.0470947287977
0.2474,-0.514614560961,-0.0470947287977
0.2476,-0.401822328422,-0.0470947287977
0.2478,-0.29137993406,-0.0470947287977
0.248,-0.253782523214,-0.0470947287977
0.2482,-0.328977344907,-0.0470947287977
0.2484,-0.439419739268,-0.0470947287977
0.2486,-0.514614560961,-0.0470947287977
0.2488,-0.552211971808,-0.0470947287977
0.249,-0.477017150115,-0.0470947287977
0.2492,-0.401822328422,-0.0470947287977
0.2494,-0.364224917575,-0.0470947287977
0.2496,-0.364224917575,-0.0470947287977
0.2498,-0.29137993406,-0.0470947287977
0.25,-0.253782523214,-0.0470947287977
0.2502,-0.29137993406,-0.0470947287977
0.2504,-0.401822328422,-0.0470947287977
0.2506,-0.514614560961,-0.0470947287977
0.2508,-0.514614560961,-0.0470947287977
0.251,-0.477017150115,-0.0470947287977
0.2512,-0.364224917575,-0.0470947287977
0.2514,-0.253782523214,-0.0470947287977
0.2516,-0.178587701521,-0.0470947287977
0.2518,-0.216185112367,-0.0470947287977
0.252,-0.29137993406,-0.0470947287977
0.2522,-0.328977344907,-0.0470947287977
0.2524,-0.328977344907,-0.0470947287977
0.2526,-0.328977344907,-0.0470947287977
0.2528,-0.328977344907,-0.0470947287977
0.253,-0.29137993406,-0.0470947287977
0.2532,-0.216185112367,-0.0470947287977
0.2534,-0.0657954689814,-0.0470947287977
0.2536,0.00939935271163,-0.0470947287977
0.2538,0.00939935271163,-0.0470947287977
0.254,-0.0281980581349,-0.0470947287977
0.2542,-0.103392879828,-0.0470947287977
0.2544,-0.178587701521,-0.0470947287977
0.2546,-0.0657954689814,-0.0470947287977
0.2548,0.00939935271163,-0.0470947287977
0.255,0.122191585251,-0.0470947287977
0.2552,0.195036568766,-0.0470947287977
0.2554,0.232633979613,-0.0470947287977
0.2556,0.232633979613,-0.0470947287977
0.2558,0.232633979613,-0.0470947287977
0.256,0.195036568766,-0.0470947287977
0.2562,0.122191585251,-0.0470947287977
0.2564,0.0845941744046,-0.0470947287977
0.2566,0.0845941744046,-0.0470947287977
0.2568,0.195036568766,-0.0470947287977
0.257,0.270231390459,-0.0470947287977
0.2572,0.383023622999,-0.0470947287977
0.2574,0.420621033845,-0.0470947287977
0.2576,0.345426212152,-0.0470947287977
0.2578,0.232633979613,-0.0470947287977
0.258,0.195036568766,-0.0470947287977
0.2582,0.232633979613,-0.0470947287977
0.2584,0.307828801306,-0.0470947287977
0.2586,0.383023622999,-0.0470947287977
0.2588,0.420621033845,-0.0470947287977
0.259,0.495815855538,-0.0470947287977
0.2592,0.533413266385,-0.0470947287977
0.2594,0.571010677231,-0.0470947287977
0.2596,0.571010677231,-0.0470947287977
0.2598,0.533413266385,-0.0470947287977
0.26,0.420621033845,-0.0470947287977
0.2602,0.420621033845,-0.0470947287977
0.2604,0.533413266385,-0.0470947287977
0.2606,0.608608088078,-0.0470947287977
0.2608,0.681453071593,-0.0470947287977
0.261,0.681453071593,-0.0470947287977
0.2612,0.571010677231,-0.0470947287977
0.2614,0.495815855538,-0.0470947287977
0.2616,0.420621033845,-0.0470947287977
0.2618,0.383023622999,-0.0470947287977
0.262,0.345426212152,-0.0470947287977
0.2622,0.307828801306,-0.0470947287977
0.2624,0.270231390459,-0.0470947287977
0.2626,0.345426212152,-0.0470947287977
0.2628,0.420621033845,-0.0470947287977
0.263,0.420621033845,-0.0470947287977
0.2632,0.345426212152,-0.0470947287977
0.2634,0.195036568766,-0.0470947287977
0.2636,0.0845941744046,-0.0470947287977
0.2638,0.00939935271163,-0.0470947287977
0.264,0.0845941744046,-0.0470947287977
0.2642,0.195036568766,-0.0470947287977
0.2644,0.232633979613,-0.0470947287977
0.2646,0.232633979613,-0.0470947287977
0.2648,0.232633979613,-0.0470947287977
0.265,0.15743915792,-0.0470947287977
0.2652,0.0845941744046,-0.0470947287977
0.2654,0.0469967635581,-0.0470947287977
0.2656,-0.0657954689814,-0.0470947287977
0.2658,-0.140990290674,-0.0470947287977
0.266,-0.140990290674,-0.0470947287977
0.2662,-0.103392879828,-0.0470947287977
0.2664,-0.0281980581349,-0.0470947287977
0.2666,-0.0281980581349,-0.0470947287977
0.2668,-0.103392879828,-0.0470947287977
0.267,-0.29137993406,-0.0470947287977
0.2672,-0.477017150115,-0.0470947287977
0.2674,-0.552211971808,-0.0470947287977
0.2676,-0.589809382654,-0.0470947287977
0.2678,-0.589809382654,-0.0470947287977
0.268,-0.552211971808,-0.0470947287977
0.2682,-0.589809382654,-0.0470947287977
0.2684,-0.589809382654,-0.0470947287977
0.2686,-0.589809382654,-0.0470947287977
0.2688,-0.589809382654,-0.0470947287977
0.269,-0.665004204347,-0.0470947287977
0.2692,-0.777796436887,-0.0470947287977
0.2694,-0.888238831249,-0.0470947287977
0.2696,-0.888238831249,-0.0470947287977
0.2698,-0.815393847734,-0.0470947287977
0.27,-0.665004204347,-0.0470947287977
0.2702,-0.627406793501,-0.0470947287977
0.2704,-0.627406793501,-0.0470947287977
0.2706,-0.702601615194,-0.0470947287977
0.2708,-0.777796436887,-0.0470947287977
0.271,-0.815393847734,-0.0470947287977
0.2712,-0.888238831249,-0.0470947287977
0.2714,-0.888238831249,-0.0470947287977
0.2716,-0.888238831249,-0.0470947287977
0.2718,-0.815393847734,-0.0470947287977
0.272,-0.815393847734,-0.0470947287977
0.2722,-0.777796436887,-0.0470947287977
0.2724,-0.777796436887,-0.0470947287977
0.2726,-0.850641420402,-0.0470947287977
0.2728,-0.963433652942,-0.0470947287977
0.273,-1.11382329633,-0.0470947287977
0.2732,-1.11382329633,-0.0470947287977
0.2734,-1.03862847463,-0.0470947287977
0.2736,-0.925836242095,-0.0470947287977
0.2738,-0.850641420402,-0.0470947287977
0.274,-0.815393847734,-0.0470947287977
0.2742,-0.815393847734,-0.0470947287977
0.2744,-0.850641420402,-0.0470947287977
0.2746,-0.888238831249,-0.0470947287977
0.2748,-0.888238831249,-0.0470947287977
0.275,-0.925836242095,-0.0470947287977
0.2752,-0.888238831249,-0.0470947287977
0.2754,-0.815393847734,-0.0470947287977
0.2756,-0.665004204347,-0.0470947287977
0.2758,-0.514614560961,-0.0470947287977
0.276,-0.439419739268,-0.0470947287977
0.2762,-0.439419739268,-0.0470947287977
0.2764,-0.514614560961,-0.0470947287977
0.2766,-0.552211971808,-0.0470947287977
0.2768,-0.589809382654,-0.0470947287977
0.277,-0.514614560961,-0.0470947287977
0.2772,-0.401822328422,-0.0470947287977
0.2774,-0.328977344907,-0.0470947287977
0.2776,-0.253782523214,-0.0470947287977
0.2778,-0.178587701521,-0.0470947287977
0.278,-0.140990290674,-0.0470947287977
0.2782,-0.103392879828,-0.0470947287977
0.2784,-0.178587701521,-0.0470947287977
0.2786,-0.216185112367,-0.0470947287977
0.2788,-0.253782523214,-0.0470947287977
0.279,-0.216185112367,-0.0470947287977
0.2792,-0.0657954689814,-0.0470947287977
0.2794,0.0845941744046,-0.0470947287977
0.2796,0.195036568766,-0.0470947287977
0.2798,0.195036568766,-0.0470947287977
0.28,0.15743915792,-0.0470947287977
0.2802,0.122191585251,-0.0470947287977
0.2804,0.15743915792,-0.0470947287977
0.2806,0.232633979613,-0.0470947287977
0.2808,0.307828801306,-0.0470947287977
0.281,0.383023622999,-0.0470947287977
0.2812,0.495815855538,-0.0470947287977
0.2814,0.571010677231,-0.0470947287977
0.2816,0.681453071593,-0.0470947287977
0.2818,0.756647893286,-0.0470947287977
0.282,0.719050482439,-0.0470947287977
0.2822,0.646205498924,-0.0470947287977
0.2824,0.646205498924,-0.0470947287977
0.2826,0.681453071593,-0.0470947287977
0.2828,0.794245304132,-0.0470947287977
0.283,0.944634947518,-0.0470947287977
0.2832,0.982232358365,-0.0470947287977
0.2834,1.01982976921,-0.0470947287977
0.2836,1.01982976921,-0.0470947287977
0.2838,1.01982976921,-0.0470947287977
0.284,0.982232358365,-0.0470947287977
0.2842,0.944634947518,-0.0470947287977
0.2844,0.982232358365,-0.0470947287977
0.2846,0.982232358365,-0.0470947287977
0.2848,1.05742718006,-0.0470947287977
0.285,1.20546698527,-0.0470947287977
0.2852,1.28066180696,-0.0470947287977
0.2854,1.35585662865,-0.0470947287977
0.2856,1.31825921781,-0.0470947287977
0.2858,1.24306439611,-0.0470947287977
0.286,1.20546698527,-0.0470947287977
0.2862,1.20546698527,-0.0470947287977
0.2864,1.28066180696,-0.0470947287977
0.2866,1.3934540395,-0.0470947287977
0.2868,1.46864886119,-0.0470947287977
0.287,1.46864886119,-0.0470947287977
0.2872,1.54384368288,-0.0470947287977
0.2874,1.58144109373,-0.0470947287977
0.2876,1.50624627204,-0.0470947287977
0.2878,1.46864886119,-0.0470947287977
0.288,1.3934540395,-0.0470947287977
0.2882,1.31825921781,-0.0470947287977
0.2884,1.35585662865,-0.0470947287977
0.2886,1.43105145034,-0.0470947287977
0.2888,1.54384368288,-0.0470947287977
0.289,1.54384368288,-0.0470947287977
0.2892,1.46864886119,-0.0470947287977
0.2894,1.35585662865,-0.0470947287977
0.2896,1.24306439611,-0.0470947287977
0.2898,1.16786957442,-0.0470947287977
0.29,1.16786957442,-0.0470947287977
0.2902,1.0950245909,-0.0470947287977
0.2904,1.13262200175,-0.0470947287977
0.2906,1.16786957442,-0.0470947287977
0.2908,1.13262200175,-0.0470947287977
0.291,1.16786957442,-0.0470947287977
0.2912,1.13262200175,-0.0470947287977
0.2914,1.01982976921,-0.0470947287977
0.2916,0.869440125825,-0.0470947287977
0.2918,0.831842714979,-0.0470947287977
0.292,0.831842714979,-0.0470947287977
0.2922,0.869440125825,-0.0470947287977
0.2924,0.907037536672,-0.0470947287977
0.2926,0.907037536672,-0.0470947287977
0.2928,0.869440125825,-0.0470947287977
0.293,0.756647893286,-0.0470947287977
0.2932,0.646205498924,-0.0470947287977
0.2934,0.533413266385,-0.0470947287977
0.2936,0.420621033845,-0.0470947287977
0.2938,0.307828801306,-0.0470947287977
0.294,0.270231390459,-0.0470947287977
0.2942,0.232633979613,-0.0470947287977
0.2944,0.232633979613,-0.0470947287977
0.2946,0.195036568766,-0.0470947287977
0.2948,0.0845941744046,-0.0470947287977
0.295,-0.0281980581349,-0.0470947287977
0.2952,-0.253782523214,-0.0470947287977
0.2954,-0.401822328422,-0.0470947287977
0.2956,-0.477017150115,-0.0470947287977
0.2958,-0.477017150115,-0.0470947287977
0.296,-0.514614560961,-0.0470947287977
0.2962,-0.552211971808,-0.0470947287977
0.2964,-0.589809382654,-0.0470947287977
0.2966,-0.627406793501,-0.0470947287977
0.2968,-0.702601615194,-0.0470947287977
0.297,-0.815393847734,-0.0470947287977
0.2972,-0.963433652942,-0.0470947287977
0.2974,-1.07622588548,-0.0470947287977
0.2976,-1.11382329633,-0.0470947287977
0.2978,-1.11382329633,-0.0470947287977
0.298,-1.07622588548,-0.0470947287977
0.2982,-1.07622588548,-0.0470947287977
0.2984,-1.11382329633,-0.0470947287977
0.2986,-1.22661552887,-0.0470947287977
0.2988,-1.33705792323,-0.0470947287977
0.299,-1.44985015577,-0.0470947287977
0.2992,-1.52504497746,-0.0470947287977
0.2994,-1.56264238831,-0.0470947287977
0.2996,-1.60023979915,-0.0470947287977
0.2998,-1.60023979915,-0.0470947287977
0.3,-1.60023979915,-0.0470947287977
0.3002,-1.60023979915,-0.0470947287977
0.3004,-1.67543462085,-0.0470947287977
0.3006,-1.75062944254,-0.0470947287977
0.3008,-1.89866924775,-0.0470947287977
0.301,-2.04905889113,-0.0470947287977
0.3012,-2.08665630198,-0.0470947287977
0.3014,-2.04905889113,-0.0470947287977
0.3016,-1.97386406944,-0.0470947287977
0.3018,-1.89866924775,-0.0470947287977
0.302,-1.89866924775,-0.0470947287977
0.3022,-1.89866924775,-0.0470947287977
0.3024,-1.97386406944,-0.0470947287977
0.3026,-1.97386406944,-0.0470947287977
0.3028,-2.01146148029,-0.0470947287977
0.303,-2.04905889113,-0.0470947287977
0.3032,-2.01146148029,-0.0470947287977
0.3034,-1.97386406944,-0.0470947287977
0.3036,-1.89866924775,-0.0470947287977
0.3038,-1.78822685339,-0.0470947287977
0.304,-1.71303203169,-0.0470947287977
0.3042,-1.71303203169,-0.0470947287977
0.3044,-1.78822685339,-0.0470947287977
0.3046,-1.8610718369,-0.0470947287977
0.3048,-1.8610718369,-0.0470947287977
0.305,-1.82347442606,-0.0470947287977
0.3052,-1.71303203169,-0.0470947287977
0.3054,-1.60023979915,-0.0470947287977
0.3056,-1.52504497746,-0.0470947287977
0.3058,-1.52504497746,-0.0470947287977
0.306,-1.48744756661,-0.0470947287977
0.3062,-1.44985015577,-0.0470947287977
0.3064,-1.48744756661,-0.0470947287977
0.3066,-1.48744756661,-0.0470947287977
0.3068,-1.44985015577,-0.0470947287977
0.307,-1.37465533408,-0.0470947287977
0.3072,-1.26421293971,-0.0470947287977
0.3074,-1.07622588548,-0.0470947287977
0.3076,-0.925836242095,-0.0470947287977
0.3078,-0.888238831249,-0.0470947287977
0.308,-0.888238831249,-0.0470947287977
0.3082,-0.888238831249,-0.0470947287977
0.3084,-0.815393847734,-0.0470947287977
0.3086,-0.777796436887,-0.0470947287977
0.3088,-0.627406793501,-0.0470947287977
0.309,-0.477017150115,-0.0470947287977
0.3092,-0.328977344907,-0.0470947287977
0.3094,-0.216185112367,-0.0470947287977
0.3096,-0.0657954689814,-0.0470947287977
0.3098,-0.0281980581349,-0.0470947287977
0.31,0.00939935271163,-0.0470947287977
0.3102,-0.0281980581349,-0.0470947287977
0.3104,0.00939935271163,-0.0470947287977
0.3106,0.0845941744046,-0.0470947287977
0.3108,0.232633979613,-0.0470947287977
0.311,0.420621033845,-0.0470947287977
0.3112,0.533413266385,-0.0470947287977
0.3114,0.646205498924,-0.0470947287977
0.3116,0.646205498924,-0.0470947287977
0.3118,0.681453071593,-0.0470947287977
0.312,0.681453071593,-0.0470947287977
0.3122,0.719050482439,-0.0470947287977
0.3124,0.794245304132,-0.0470947287977
0.3126,0.869440125825,-0.0470947287977
0.3128,1.01982976921,-0.0470947287977
0.313,1.16786957442,-0.0470947287977
0.3132,1.28066180696,-0.0470947287977
0.3134,1.3934540395,-0.0470947287977
0.3136,1.43105145034,-0.0470947287977
0.3138,1.43105145034,-0.0470947287977
0.314,1.3934540395,-0.0470947287977
0.3142,1.46864886119,-0.0470947287977
0.3144,1.58144109373,-0.0470947287977
0.3146,1.72948089894,-0.0470947287977
0.3148,1.84227313148,-0.0470947287977
0.315,1.91746795317,-0.0470947287977
0.3152,1.99266277486,-0.0470947287977
0.3154,2.03026018571,-0.0470947287977
0.3156,2.03026018571,-0.0470947287977
0.3158,1.99266277486,-0.0470947287977
0.316,1.99266277486,-0.0470947287977
0.3162,1.99266277486,-0.0470947287977
0.3164,2.06785759656,-0.0470947287977
0.3166,2.14070258007,-0.0470947287977
0.3168,2.36628704515,-0.0470947287977
0.317,2.403884456,-0.0470947287977
0.3172,2.44148186684,-0.0470947287977
0.3174,2.36628704515,-0.0470947287977
0.3176,2.17829999092,-0.0470947287977
0.3178,2.14070258007,-0.0470947287977
0.318,2.17829999092,-0.0470947287977
0.3182,2.21589740177,-0.0470947287977
0.3184,2.36628704515,-0.0470947287977
0.3186,2.403884456,-0.0470947287977
0.3188,2.47907927769,-0.0470947287977
0.319,2.47907927769,-0.0470947287977
0.3192,2.47907927769,-0.0470947287977
0.3194,2.403884456,-0.0470947287977
0.3196,2.17829999092,-0.0470947287977
0.3198,2.06785759656,-0.0470947287977
0.32,2.06785759656,-0.0470947287977
0.3202,2.14070258007,-0.0470947287977
0.3204,2.17829999092,-0.0470947287977
0.3206,2.21589740177,-0.0470947287977
0.3208,2.17829999092,-0.0470947287977
0.321,2.06785759656,-0.0470947287977
0.3212,1.95506536402,-0.0470947287977
0.3214,1.80467572063,-0.0470947287977
0.3216,1.72948089894,-0.0470947287977
0.3218,1.61903850458,-0.0470947287977
0.322,1.58144109373,-0.0470947287977
0.3222,1.58144109373,-0.0470947287977
0.3224,1.58144109373,-0.0470947287977
0.3226,1.54384368288,-0.0470947287977
0.3228,1.50624627204,-0.0470947287977
0.323,1.35585662865,-0.0470947287977
0.3232,1.16786957442,-0.0470947287977
0.3234,0.982232358365,-0.0470947287977
0.3236,0.869440125825,-0.0470947287977
0.3238,0.869440125825,-0.0470947287977
0.324,0.831842714979,-0.0470947287977
0.3242,0.831842714979,-0.0470947287977
0.3244,0.756647893286,-0.0470947287977
0.3246,0.681453071593,-0.0470947287977
0.3248,0.571010677231,-0.0470947287977
0.325,0.420621033845,-0.0470947287977
0.3252,0.307828801306,-0.0470947287977
0.3254,0.15743915792,-0.0470947287977
0.3256,0.0845941744046,-0.0470947287977
0.3258,-0.0281980581349,-0.0470947287977
0.326,-0.0281980581349,-0.0470947287977
0.3262,-0.0281980581349,-0.0470947287977
0.3264,-0.0657954689814,-0.0470947287977
0.3266,-0.216185112367,-0.0470947287977
0.3268,-0.401822328422,-0.0470947287977
0.327,-0.589809382654,-0.0470947287977
0.3272,-0.702601615194,-0.0470947287977
0.3274,-0.815393847734,-0.0470947287977
0.3276,-0.888238831249,-0.0470947287977
0.3278,-0.963433652942,-0.0470947287977
0.328,-1.00103106379,-0.0470947287977
0.3282,-1.07622588548,-0.0470947287977
0.3284,-1.15142070717,-0.0470947287977
0.3286,-1.26421293971,-0.0470947287977
0.3288,-1.44985015577,-0.0470947287977
0.329,-1.60023979915,-0.0470947287977
0.3292,-1.71303203169,-0.0470947287977
0.3294,-1.78822685339,-0.0470947287977
0.3296,-1.78822685339,-0.0470947287977
0.3298,-1.71303203169,-0.0470947287977
0.33,-1.75062944254,-0.0470947287977
0.3302,-1.82347442606,-0.0470947287977
0.3304,-1.93626665859,-0.0470947287977
0.3306,-2.04905889113,-0.0470947287977
0.3308,-2.12425371283,-0.0470947287977
0.331,-2.19944853452,-0.0470947287977
0.3312,-2.19944853452,-0.0470947287977
0.3314,-2.23704594537,-0.0470947287977
0.3316,-2.19944853452,-0.0470947287977
0.3318,-2.19944853452,-0.0470947287977
0.332,-2.19944853452,-0.0470947287977
0.3322,-2.23704594537,-0.0470947287977
0.3324,-2.34748833973,-0.0470947287977
0.3326,-2.53547539396,-0.0470947287977
0.3328,-2.57307280481,-0.0470947287977
0.333,-2.61067021565,-0.0470947287977
0.3332,-2.57307280481,-0.0470947287977
0.3334,-2.49787798311,-0.0470947287977
0.3336,-2.46028057227,-0.0470947287977
0.3338,-2.46028057227,-0.0470947287977
0.334,-2.49787798311,-0.0470947287977
0.3342,-2.53547539396,-0.0470947287977
0.3344,-2.57307280481,-0.0470947287977
0.3346,-2.61067021565,-0.0470947287977
0.3348,-2.61067021565,-0.0470947287977
0.335,-2.61067021565,-0.0470947287977
0.3352,-2.49787798311,-0.0470947287977
0.3354,-2.34748833973,-0.0470947287977
0.3356,-2.23704594537,-0.0470947287977
0.3358,-2.19944853452,-0.0470947287977
0.336,-2.19944853452,-0.0470947287977
0.3362,-2.19944853452,-0.0470947287977
0.3364,-2.19944853452,-0.0470947287977
0.3366,-2.16185112367,-0.0470947287977
0.3368,-2.08665630198,-0.0470947287977
0.337,-1.97386406944,-0.0470947287977
0.3372,-1.82347442606,-0.0470947287977
0.3374,-1.71303203169,-0.0470947287977
0.3376,-1.60023979915,-0.0470947287977
0.3378,-1.52504497746,-0.0470947287977
0.338,-1.52504497746,-0.0470947287977
0.3382,-1.52504497746,-0.0470947287977
0.3384,-1.48744756661,-0.0470947287977
0.3386,-1.41225274492,-0.0470947287977
0.3388,-1.30181035056,-0.0470947287977
0.339,-1.15142070717,-0.0470947287977
0.3392,-1.00103106379,-0.0470947287977
0.3394,-0.888238831249,-0.0470947287977
0.3396,-0.850641420402,-0.0470947287977
0.3398,-0.815393847734,-0.0470947287977
0.34,-0.777796436887,-0.0470947287977
0.3402,-0.702601615194,-0.0470947287977
0.3404,-0.627406793501,-0.0470947287977
0.3406,-0.477017150115,-0.0470947287977
0.3408,-0.328977344907,-0.0470947287977
0.341,-0.178587701521,-0.0470947287977
0.3412,-0.0281980581349,-0.0470947287977
0.3414,0.0845941744046,-0.0470947287977
0.3416,0.15743915792,-0.0470947287977
0.3418,0.232633979613,-0.0470947287977
0.342,0.232633979613,-0.0470947287977
0.3422,0.307828801306,-0.0470947287977
0.3424,0.420621033845,-0.0470947287977
0.3426,0.608608088078,-0.0470947287977
0.3428,0.794245304132,-0.0470947287977
0.343,0.907037536672,-0.0470947287977
0.3432,1.01982976921,-0.0470947287977
0.3434,1.0950245909,-0.0470947287977
0.3436,1.13262200175,-0.0470947287977
0.3438,1.16786957442,-0.0470947287977
0.344,1.20546698527,-0.0470947287977
0.3442,1.24306439611,-0.0470947287977
0.3444,1.3934540395,-0.0470947287977
0.3446,1.50624627204,-0.0470947287977
0.3448,1.65428607725,-0.0470947287977
0.345,1.76707830979,-0.0470947287977
0.3452,1.80467572063,-0.0470947287977
0.3454,1.80467572063,-0.0470947287977
0.3456,1.80467572063,-0.0470947287977
0.3458,1.80467572063,-0.0470947287977
0.346,1.87987054233,-0.0470947287977
0.3462,1.99266277486,-0.0470947287977
0.3464,2.1054550074,-0.0470947287977
0.3466,2.21589740177,-0.0470947287977
0.3468,2.403884456,-0.0470947287977
0.347,2.44148186684,-0.0470947287977
0.3472,2.47907927769,-0.0470947287977
0.3474,2.47907927769,-0.0470947287977
0.3476,2.44148186684,-0.0470947287977
0.3478,2.44148186684,-0.0470947287977
0.348,2.47907927769,-0.0470947287977
0.3482,2.55427409938,-0.0470947287977
0.3484,2.6271190829,-0.0470947287977
0.3486,2.70231390459,-0.0470947287977
0.3488,2.73991131544,-0.0470947287977
0.349,2.66471649375,-0.0470947287977
0.3492,2.6271190829,-0.0470947287977
0.3494,2.59187151023,-0.0470947287977
0.3496,2.51667668854,-0.0470947287977
0.3498,2.51667668854,-0.0470947287977
0.35,2.51667668854,-0.0470947287977
0.3502,2.55427409938,-0.0470947287977
0.3504,2.59187151023,-0.0470947287977
0.3506,2.6271190829,-0.0470947287977
0.3508,2.59187151023,-0.0470947287977
0.351,2.47907927769,-0.0470947287977
0.3512,2.36628704515,-0.0470947287977
0.3514,2.17829999092,-0.0470947287977
0.3516,2.1054550074,-0.0470947287977
0.3518,2.06785759656,-0.0470947287977
0.352,2.1054550074,-0.0470947287977
0.3522,2.1054550074,-0.0470947287977
0.3524,2.1054550074,-0.0470947287977
0.3526,2.03026018571,-0.0470947287977
0.3528,1.95506536402,-0.0470947287977
0.353,1.80467572063,-0.0470947287977
0.3532,1.72948089894,-0.0470947287977
0.3534,1.58144109373,-0.0470947287977
0.3536,1.46864886119,-0.0470947287977
0.3538,1.43105145034,-0.0470947287977
0.354,1.43105145034,-0.0470947287977
0.3542,1.3934540395,-0.0470947287977
0.3544,1.3934540395,-0.0470947287977
0.3546,1.24306439611,-0.0470947287977
0.3548,1.0950245909,-0.0470947287977
0.355,0.944634947518,-0.0470947287977
0.3552,0.756647893286,-0.0470947287977
0.3554,0.681453071593,-0.0470947287977
0.3556,0.646205498924,-0.0470947287977
0.3558,0.608608088078,-0.0470947287977
0.356,0.533413266385,-0.0470947287977
0.3562,0.458218444692,-0.0470947287977
0.3564,0.383023622999,-0.0470947287977
0.3566,0.232633979613,-0.0470947287977
0.3568,0.0845941744046,-0.0470947287977
0.357,-0.103392879828,-0.0470947287977
0.3572,-0.29137993406,-0.0470947287977
0.3574,-0.364224917575,-0.0470947287977
0.3576,-0.401822328422,-0.0470947287977
0.3578,-0.401822328422,-0.0470947287977
0.358,-0.439419739268,-0.0470947287977
0.3582,-0.514614560961,-0.0470947287977
0.3584,-0.627406793501,-0.0470947287977
0.3586,-0.777796436887,-0.0470947287977
0.3588,-0.925836242095,-0.0470947287977
0.359,-1.07622588548,-0.0470947287977
0.3592,-1.15142070717,-0.0470947287977
0.3594,-1.18901811802,-0.0470947287977
0.3596,-1.26421293971,-0.0470947287977
0.3598,-1.26421293971,-0.0470947287977
0.36,-1.26421293971,-0.0470947287977
0.3602,-1.37465533408,-0.0470947287977
0.3604,-1.48744756661,-0.0470947287977
0.3606,-1.63783721,-0.0470947287977
0.3608,-1.78822685339,-0.0470947287977
0.361,-1.8610718369,-0.0470947287977
0.3612,-1.89866924775,-0.0470947287977
0.3614,-1.89866924775,-0.0470947287977
0.3616,-1.93626665859,-0.0470947287977
0.3618,-1.97386406944,-0.0470947287977
0.362,-2.08665630198,-0.0470947287977
0.3622,-2.16185112367,-0.0470947287977
0.3624,-2.27464335621,-0.0470947287977
0.3626,-2.34748833973,-0.0470947287977
0.3628,-2.38508575057,-0.0470947287977
0.363,-2.49787798311,-0.0470947287977
0.3632,-2.49787798311,-0.0470947287977
0.3634,-2.46028057227,-0.0470947287977
0.3636,-2.34748833973,-0.0470947287977
0.3638,-2.34748833973,-0.0470947287977
0.364,-2.38508575057,-0.0470947287977
0.3642,-2.49787798311,-0.0470947287977
0.3644,-2.57307280481,-0.0470947287977
0.3646,-2.57307280481,-0.0470947287977
0.3648,-2.53547539396,-0.0470947287977
0.365,-2.46028057227,-0.0470947287977
0.3652,-2.34748833973,-0.0470947287977
0.3654,-2.30989092888,-0.0470947287977
0.3656,-2.27464335621,-0.0470947287977
0.3658,-2.27464335621,-0.0470947287977
0.366,-2.30989092888,-0.0470947287977
0.3662,-2.30989092888,-0.0470947287977
0.3664,-2.34748833973,-0.0470947287977
0.3666,-2.34748833973,-0.0470947287977
0.3668,-2.30989092888,-0.0470947287977
0.367,-2.19944853452,-0.0470947287977
0.3672,-2.08665630198,-0.0470947287977
0.3674,-2.01146148029,-0.0470947287977
0.3676,-1.97386406944,-0.0470947287977
0.3678,-2.01146148029,-0.0470947287977
0.368,-2.04905889113,-0.0470947287977
0.3682,-2.01146148029,-0.0470947287977
0.3684,-1.93626665859,-0.0470947287977
0.3686,-1.8610718369,-0.0470947287977
0.3688,-1.71303203169,-0.0470947287977
0.369,-1.60023979915,-0.0470947287977
0.3692,-1.48744756661,-0.0470947287977
0.3694,-1.37465533408,-0.0470947287977
0.3696,-1.30181035056,-0.0470947287977
0.3698,-1.26421293971,-0.0470947287977
0.37,-1.22661552887,-0.0470947287977
0.3702,-1.18901811802,-0.0470947287977
0.3704,-1.03862847463,-0.0470947287977
0.3706,-0.888238831249,-0.0470947287977
0.3708,-0.740199026041,-0.0470947287977
0.371,-0.589809382654,-0.0470947287977
0.3712,-0.477017150115,-0.0470947287977
0.3714,-0.401822328422,-0.0470947287977
0.3716,-0.401822328422,-0.0470947287977
0.3718,-0.328977344907,-0.0470947287977
0.372,-0.29137993406,-0.0470947287977
0.3722,-0.216185112367,-0.0470947287977
0.3724,-0.0657954689814,-0.0470947287977
0.3726,0.0469967635581,-0.0470947287977
0.3728,0.195036568766,-0.0470947287977
0.373,0.307828801306,-0.0470947287977
0.3732,0.420621033845,-0.0470947287977
0.3734,0.458218444692,-0.0470947287977
0.3736,0.495815855538,-0.0470947287977
0.3738,0.495815855538,-0.0470947287977
0.374,0.571010677231,-0.0470947287977
0.3742,0.719050482439,-0.0470947287977
0.3744,0.869440125825,-0.0470947287977
0.3746,1.01982976921,-0.0470947287977
0.3748,1.13262200175,-0.0470947287977
0.375,1.20546698527,-0.0470947287977
0.3752,1.28066180696,-0.0470947287977
0.3754,1.31825921781,-0.0470947287977
0.3756,1.35585662865,-0.0470947287977
0.3758,1.43105145034,-0.0470947287977
0.376,1.50624627204,-0.0470947287977
0.3762,1.61903850458,-0.0470947287977
0.3764,1.76707830979,-0.0470947287977
0.3766,1.91746795317,-0.0470947287977
0.3768,1.99266277486,-0.0470947287977
0.377,2.03026018571,-0.0470947287977
0.3772,1.95506536402,-0.0470947287977
0.3774,1.95506536402,-0.0470947287977
0.3776,1.99266277486,-0.0470947287977
0.3778,2.03026018571,-0.0470947287977
0.378,2.1054550074,-0.0470947287977
0.3782,2.17829999092,-0.0470947287977
0.3784,2.36628704515,-0.0470947287977
0.3786,2.403884456,-0.0470947287977
0.3788,2.403884456,-0.0470947287977
0.379,2.403884456,-0.0470947287977
0.3792,2.25349481261,-0.0470947287977
0.3794,2.17829999092,-0.0470947287977
0.3796,2.21589740177,-0.0470947287977
0.3798,2.21589740177,-0.0470947287977
0.38,2.403884456,-0.0470947287977
0.3802,2.47907927769,-0.0470947287977
0.3804,2.51667668854,-0.0470947287977
0.3806,2.51667668854,-0.0470947287977
0.3808,2.44148186684,-0.0470947287977
0.381,2.403884456,-0.0470947287977
0.3812,2.36628704515,-0.0470947287977
0.3814,2.21589740177,-0.0470947287977
0.3816,2.17829999092,-0.0470947287977
0.3818,2.21589740177,-0.0470947287977
0.382,2.21589740177,-0.0470947287977
0.3822,2.36628704515,-0.0470947287977
0.3824,2.21589740177,-0.0470947287977
0.3826,2.17829999092,-0.0470947287977
0.3828,2.06785759656,-0.0470947287977
0.383,1.91746795317,-0.0470947287977
0.3832,1.80467572063,-0.0470947287977
0.3834,1.76707830979,-0.0470947287977
0.3836,1.76707830979,-0.0470947287977
0.3838,1.76707830979,-0.0470947287977
0.384,1.69188348809,-0.0470947287977
0.3842,1.61903850458,-0.0470947287977
0.3844,1.54384368288,-0.0470947287977
0.3846,1.43105145034,-0.0470947287977
0.3848,1.28066180696,-0.0470947287977
0.385,1.16786957442,-0.0470947287977
0.3852,1.0950245909,-0.0470947287977
0.3854,1.01982976921,-0.0470947287977
0.3856,0.982232358365,-0.0470947287977
0.3858,0.982232358365,-0.0470947287977
0.386,0.982232358365,-0.0470947287977
0.3862,0.907037536672,-0.0470947287977
0.3864,0.794245304132,-0.0470947287977
0.3866,0.608608088078,-0.0470947287977
0.3868,0.420621033845,-0.0470947287977
0.387,0.307828801306,-0.0470947287977
0.3872,0.232633979613,-0.0470947287977
0.3874,0.232633979613,-0.0470947287977
0.3876,0.195036568766,-0.0470947287977
0.3878,0.15743915792,-0.0470947287977
0.388,0.122191585251,-0.0470947287977
0.3882,0.00939935271163,-0.0470947287977
0.3884,-0.178587701521,-0.0470947287977
0.3886,-0.328977344907,-0.0470947287977
0.3888,-0.477017150115,-0.0470947287977
0.389,-0.589809382654,-0.0470947287977
0.3892,-0.627406793501,-0.0470947287977
0.3894,-0.627406793501,-0.0470947287977
0.3896,-0.627406793501,-0.0470947287977
0.3898,-0.702601615194,-0.0470947287977
0.39,-0.815393847734,-0.0470947287977
0.3902,-0.963433652942,-0.0470947287977
0.3904,-1.15142070717,-0.0470947287977
0.3906,-1.30181035056,-0.0470947287977
0.3908,-1.37465533408,-0.0470947287977
0.391,-1.44985015577,-0.0470947287977
0.3912,-1.48744756661,-0.0470947287977
0.3914,-1.41225274492,-0.0470947287977
0.3916,-1.44985015577,-0.0470947287977
0.3918,-1.48744756661,-0.0470947287977
0.392,-1.56264238831,-0.0470947287977
0.3922,-1.71303203169,-0.0470947287977
0.3924,-1.82347442606,-0.0470947287977
0.3926,-1.89866924775,-0.0470947287977
0.3928,-1.97386406944,-0.0470947287977
0.393,-1.89866924775,-0.0470947287977
0.3932,-1.8610718369,-0.0470947287977
0.3934,-1.8610718369,-0.0470947287977
0.3936,-1.8610718369,-0.0470947287977
0.3938,-1.93626665859,-0.0470947287977
0.394,-1.97386406944,-0.0470947287977
0.3942,-2.08665630198,-0.0470947287977
0.3944,-2.16185112367,-0.0470947287977
0.3946,-2.23704594537,-0.0470947287977
0.3948,-2.23704594537,-0.0470947287977
0.395,-2.19944853452,-0.0470947287977
0.3952,-2.16185112367,-0.0470947287977
0.3954,-2.16185112367,-0.0470947287977
0.3956,-2.16185112367,-0.0470947287977
0.3958,-2.19944853452,-0.0470947287977
0.396,-2.27464335621,-0.0470947287977
0.3962,-2.34748833973,-0.0470947287977
0.3964,-2.34748833973,-0.0470947287977
0.3966,-2.30989092888,-0.0470947287977
0.3968,-2.23704594537,-0.0470947287977
0.397,-2.12425371283,-0.0470947287977
0.3972,-2.04905889113,-0.0470947287977
0.3974,-2.01146148029,-0.0470947287977
0.3976,-1.97386406944,-0.0470947287977
0.3978,-1.97386406944,-0.0470947287977
0.398,-1.97386406944,-0.0470947287977
0.3982,-1.97386406944,-0.0470947287977
0.3984,-1.89866924775,-0.0470947287977
0.3986,-1.78822685339,-0.0470947287977
0.3988,-1.63783721,-0.0470947287977
0.399,-1.56264238831,-0.0470947287977
0.3992,-1.48744756661,-0.0470947287977
0.3994,-1.44985015577,-0.0470947287977
0.3996,-1.48744756661,-0.0470947287977
0.3998,-1.48744756661,-0.0470947287977
0.4,-1.44985015577,-0.0470947287977
0.4002,-1.37465533408,-0.0470947287977
0.4004,-1.30181035056,-0.0470947287977
0.4006,-1.18901811802,-0.0470947287977
0.4008,-1.07622588548,-0.0470947287977
0.401,-0.963433652942,-0.0470947287977
0.4012,-0.925836242095,-0.0470947287977
0.4014,-0.888238831249,-0.0470947287977
0.4016,-0.888238831249,-0.0470947287977
0.4018,-0.888238831249,-0.0470947287977
0.402,-0.777796436887,-0.0470947287977
0.4022,-0.627406793501,-0.0470947287977
0.4024,-0.477017150115,-0.0470947287977
0.4026,-0.328977344907,-0.0470947287977
0.4028,-0.178587701521,-0.0470947287977
0.403,-0.0657954689814,-0.0470947287977
0.4032,-0.0281980581349,-0.0470947287977
0.4034,0.0845941744046,-0.0470947287977
0.4036,0.122191585251,-0.0470947287977
0.4038,0.232633979613,-0.0470947287977
0.404,0.270231390459,-0.0470947287977
0.4042,0.420621033845,-0.0470947287977
0.4044,0.571010677231,-0.0470947287977
0.4046,0.719050482439,-0.0470947287977
0.4048,0.831842714979,-0.0470947287977
0.405,0.869440125825,-0.0470947287977
0.4052,0.869440125825,-0.0470947287977
0.4054,0.869440125825,-0.0470947287977
0.4056,0.869440125825,-0.0470947287977
0.4058,0.982232358365,-0.0470947287977
0.406,1.05742718006,-0.0470947287977
0.4062,1.16786957442,-0.0470947287977
0.4064,1.28066180696,-0.0470947287977
0.4066,1.35585662865,-0.0470947287977
0.4068,1.3934540395,-0.0470947287977
0.407,1.43105145034,-0.0470947287977
0.4072,1.43105145034,-0.0470947287977
0.4074,1.43105145034,-0.0470947287977
0.4076,1.46864886119,-0.0470947287977
0.4078,1.54384368288,-0.0470947287977
0.408,1.69188348809,-0.0470947287977
0.4082,1.80467572063,-0.0470947287977
0.4084,1.91746795317,-0.0470947287977
0.4086,1.95506536402,-0.0470947287977
0.4088,1.99266277486,-0.0470947287977
0.409,1.91746795317,-0.0470947287977
0.4092,1.91746795317,-0.0470947287977
0.4094,1.99266277486,-0.0470947287977
0.4096,2.03026018571,-0.0470947287977
0.4098,2.06785759656,-0.0470947287977
0.41,2.14070258007,-0.0470947287977
0.4102,2.21589740177,-0.0470947287977
0.4104,2.21589740177,-0.0470947287977
0.4106,2.21589740177,-0.0470947287977
0.4108,2.1054550074,-0.0470947287977
0.411,2.06785759656,-0.0470947287977
0.4112,1.99266277486,-0.0470947287977
0.4114,1.95506536402,-0.0470947287977
0.4116,1.99266277486,-0.0470947287977
0.4118,2.03026018571,-0.0470947287977
0.412,2.06785759656,-0.0470947287977
0.4122,2.06785759656,-0.0470947287977
0.4124,1.99266277486,-0.0470947287977
0.4126,1.87987054233,-0.0470947287977
0.4128,1.80467572063,-0.0470947287977
0.413,1.76707830979,-0.0470947287977
0.4132,1.72948089894,-0.0470947287977
0.4134,1.69188348809,-0.0470947287977
0.4136,1.69188348809,-0.0470947287977
0.4138,1.72948089894,-0.0470947287977
0.414,1.72948089894,-0.0470947287977
0.4142,1.72948089894,-0.0470947287977
0.4144,1.61903850458,-0.0470947287977
0.4146,1.50624627204,-0.0470947287977
0.4148,1.3934540395,-0.0470947287977
0.415,1.28066180696,-0.0470947287977
0.4152,1.28066180696,-0.0470947287977
0.4154,1.28066180696,-0.0470947287977
0.4156,1.28066180696,-0.0470947287977
0.4158,1.20546698527,-0.0470947287977
0.416,1.16786957442,-0.0470947287977
0.4162,1.05742718006,-0.0470947287977
0.4164,0.907037536672,-0.0470947287977
0.4166,0.794245304132,-0.0470947287977
0.4168,0.681453071593,-0.0470947287977
0.417,0.571010677231,-0.0470947287977
0.4172,0.533413266385,-0.0470947287977
0.4174,0.533413266385,-0.0470947287977
0.4176,0.458218444692,-0.0470947287977
0.4178,0.383023622999,-0.0470947287977
0.418,0.307828801306,-0.0470947287977
0.4182,0.195036568766,-0.0470947287977
0.4184,0.00939935271163,-0.0470947287977
0.4186,-0.103392879828,-0.0470947287977
0.4188,-0.178587701521,-0.0470947287977
0.419,-0.178587701521,-0.0470947287977
0.4192,-0.216185112367,-0.0470947287977
0.4194,-0.253782523214,-0.0470947287977
0.4196,-0.29137993406,-0.0470947287977
0.4198,-0.401822328422,-0.0470947287977
0.42,-0.477017150115,-0.0470947287977
0.4202,-0.627406793501,-0.0470947287977
0.4204,-0.740199026041,-0.0470947287977
0.4206,-0.815393847734,-0.0470947287977
0.4208,-0.888238831249,-0.0470947287977
0.421,-0.815393847734,-0.0470947287977
0.4212,-0.815393847734,-0.0470947287977
0.4214,-0.888238831249,-0.0470947287977
0.4216,-0.963433652942,-0.0470947287977
0.4218,-1.07622588548,-0.0470947287977
0.422,-1.22661552887,-0.0470947287977
0.4222,-1.30181035056,-0.0470947287977
0.4224,-1.37465533408,-0.0470947287977
0.4226,-1.41225274492,-0.0470947287977
0.4228,-1.48744756661,-0.0470947287977
0.423,-1.48744756661,-0.0470947287977
0.4232,-1.48744756661,-0.0470947287977
0.4234,-1.52504497746,-0.0470947287977
0.4236,-1.63783721,-0.0470947287977
0.4238,-1.71303203169,-0.0470947287977
0.424,-1.8610718369,-0.0470947287977
0.4242,-1.97386406944,-0.0470947287977
0.4244,-1.97386406944,-0.0470947287977
0.4246,-1.89866924775,-0.0470947287977
0.4248,-1.82347442606,-0.0470947287977
0.425,-1.78822685339,-0.0470947287977
0.4252,-1.78822685339,-0.0470947287977
0.4254,-1.78822685339,-0.0470947287977
0.4256,-1.82347442606,-0.0470947287977
0.4258,-1.8610718369,-0.0470947287977
0.426,-1.89866924775,-0.0470947287977
0.4262,-1.89866924775,-0.0470947287977
0.4264,-1.89866924775,-0.0470947287977
0.4266,-1.78822685339,-0.0470947287977
0.4268,-1.71303203169,-0.0470947287977
0.427,-1.63783721,-0.0470947287977
0.4272,-1.63783721,-0.0470947287977
0.4274,-1.71303203169,-0.0470947287977
0.4276,-1.75062944254,-0.0470947287977
0.4278,-1.82347442606,-0.0470947287977
0.428,-1.8610718369,-0.0470947287977
0.4282,-1.82347442606,-0.0470947287977
0.4284,-1.75062944254,-0.0470947287977
0.4286,-1.67543462085,-0.0470947287977
0.4288,-1.67543462085,-0.0470947287977
0.429,-1.56264238831,-0.0470947287977
0.4292,-1.56264238831,-0.0470947287977
0.4294,-1.56264238831,-0.0470947287977
0.4296,-1.60023979915,-0.0470947287977
0.4298,-1.56264238831,-0.0470947287977
0.43,-1.52504497746,-0.0470947287977
0.4302,-1.44985015577,-0.0470947287977
0.4304,-1.26421293971,-0.0470947287977
0.4306,-1.11382329633,-0.0470947287977
0.4308,-1.00103106379,-0.0470947287977
0.431,-0.963433652942,-0.0470947287977
0.4312,-0.925836242095,-0.0470947287977
0.4314,-0.888238831249,-0.0470947287977
0.4316,-0.888238831249,-0.0470947287977
0.4318,-0.777796436887,-0.0470947287977
0.432,-0.740199026041,-0.0470947287977
0.4322,-0.589809382654,-0.0470947287977
0.4324,-0.477017150115,-0.0470947287977
0.4326,-0.364224917575,-0.0470947287977
0.4328,-0.29137993406,-0.0470947287977
0.433,-0.253782523214,-0.0470947287977
0.4332,-0.253782523214,-0.0470947287977
0.4334,-0.29137993406,-0.0470947287977
0.4336,-0.253782523214,-0.0470947287977
0.4338,-0.216185112367,-0.0470947287977
0.434,-0.103392879828,-0.0470947287977
0.4342,0.00939935271163,-0.0470947287977
0.4344,0.122191585251,-0.0470947287977
0.4346,0.195036568766,-0.0470947287977
0.4348,0.270231390459,-0.0470947287977
0.435,0.307828801306,-0.0470947287977
0.4352,0.307828801306,-0.0470947287977
0.4354,0.383023622999,-0.0470947287977
0.4356,0.458218444692,-0.0470947287977
0.4358,0.533413266385,-0.0470947287977
0.436,0.681453071593,-0.0470947287977
0.4362,0.831842714979,-0.0470947287977
0.4364,0.944634947518,-0.0470947287977
0.4366,1.01982976921,-0.0470947287977
0.4368,1.05742718006,-0.0470947287977
0.437,1.05742718006,-0.0470947287977
0.4372,1.05742718006,-0.0470947287977
0.4374,1.13262200175,-0.0470947287977
0.4376,1.20546698527,-0.0470947287977
0.4378,1.31825921781,-0.0470947287977
0.438,1.3934540395,-0.0470947287977
0.4382,1.46864886119,-0.0470947287977
0.4384,1.46864886119,-0.0470947287977
0.4386,1.50624627204,-0.0470947287977
0.4388,1.46864886119,-0.0470947287977
0.439,1.43105145034,-0.0470947287977
0.4392,1.43105145034,-0.0470947287977
0.4394,1.43105145034,-0.0470947287977
0.4396,1.46864886119,-0.0470947287977
0.4398,1.58144109373,-0.0470947287977
0.44,1.61903850458,-0.0470947287977
0.4402,1.69188348809,-0.0470947287977
0.4404,1.65428607725,-0.0470947287977
0.4406,1.61903850458,-0.0470947287977
0.4408,1.58144109373,-0.0470947287977
0.441,1.58144109373,-0.0470947287977
0.4412,1.61903850458,-0.0470947287977
0.4414,1.65428607725,-0.0470947287977
0.4416,1.69188348809,-0.0470947287977
0.4418,1.76707830979,-0.0470947287977
0.442,1.80467572063,-0.0470947287977
0.4422,1.80467572063,-0.0470947287977
0.4424,1.80467572063,-0.0470947287977
0.4426,1.72948089894,-0.0470947287977
0.4428,1.61903850458,-0.0470947287977
0.443,1.61903850458,-0.0470947287977
0.4432,1.61903850458,-0.0470947287977
0.4434,1.61903850458,-0.0470947287977
0.4436,1.69188348809,-0.0470947287977
0.4438,1.65428607725,-0.0470947287977
0.444,1.61903850458,-0.0470947287977
0.4442,1.50624627204,-0.0470947287977
0.4444,1.3934540395,-0.0470947287977
0.4446,1.28066180696,-0.0470947287977
0.4448,1.24306439611,-0.0470947287977
0.445,1.16786957442,-0.0470947287977
0.4452,1.13262200175,-0.0470947287977
0.4454,1.13262200175,-0.0470947287977
0.4456,1.16786957442,-0.0470947287977
0.4458,1.13262200175,-0.0470947287977
0.446,1.05742718006,-0.0470947287977
0.4462,0.944634947518,-0.0470947287977
0.4464,0.794245304132,-0.0470947287977
0.4466,0.719050482439,-0.0470947287977
0.4468,0.681453071593,-0.0470947287977
0.447,0.681453071593,-0.0470947287977
0.4472,0.681453071593,-0.0470947287977
0.4474,0.681453071593,-0.0470947287977
0.4476,0.608608088078,-0.0470947287977
0.4478,0.608608088078,-0.0470947287977
0.448,0.533413266385,-0.0470947287977
0.4482,0.420621033845,-0.0470947287977
0.4484,0.307828801306,-0.0470947287977
0.4486,0.232633979613,-0.0470947287977
0.4488,0.15743915792,-0.0470947287977
0.449,0.122191585251,-0.0470947287977
0.4492,0.122191585251,-0.0470947287977
0.4494,0.0845941744046,-0.0470947287977
0.4496,0.00939935271163,-0.0470947287977
0.4498,-0.0657954689814,-0.0470947287977
0.45,-0.216185112367,-0.0470947287977
0.4502,-0.328977344907,-0.0470947287977
0.4504,-0.439419739268,-0.0470947287977
0.4506,-0.514614560961,-0.0470947287977
0.4508,-0.552211971808,-0.0470947287977
0.451,-0.589809382654,-0.0470947287977
0.4512,-0.627406793501,-0.0470947287977
0.4514,-0.627406793501,-0.0470947287977
0.4516,-0.665004204347,-0.0470947287977
0.4518,-0.777796436887,-0.0470947287977
0.452,-0.925836242095,-0.0470947287977
0.4522,-1.00103106379,-0.0470947287977
0.4524,-1.07622588548,-0.0470947287977
0.4526,-1.07622588548,-0.0470947287977
0.4528,-1.00103106379,-0.0470947287977
0.453,-0.963433652942,-0.0470947287977
0.4532,-0.963433652942,-0.0470947287977
0.4534,-1.00103106379,-0.0470947287977
0.4536,-1.07622588548,-0.0470947287977
0.4538,-1.18901811802,-0.0470947287977
0.454,-1.22661552887,-0.0470947287977
0.4542,-1.30181035056,-0.0470947287977
0.4544,-1.30181035056,-0.0470947287977
0.4546,-1.26421293971,-0.0470947287977
0.4548,-1.22661552887,-0.0470947287977
0.455,-1.22661552887,-0.0470947287977
0.4552,-1.22661552887,-0.0470947287977
0.4554,-1.30181035056,-0.0470947287977
0.4556,-1.48744756661,-0.0470947287977
0.4558,-1.56264238831,-0.0470947287977
0.456,-1.63783721,-0.0470947287977
0.4562,-1.63783721,-0.0470947287977
0.4564,-1.56264238831,-0.0470947287977
0.4566,-1.52504497746,-0.0470947287977
0.4568,-1.48744756661,-0.0470947287977
0.457,-1.48744756661,-0.0470947287977
0.4572,-1.41225274492,-0.0470947287977
0.4574,-1.41225274492,-0.0470947287977
0.4576,-1.48744756661,-0.0470947287977
0.4578,-1.52504497746,-0.0470947287977
0.458,-1.52504497746,-0.0470947287977
0.4582,-1.41225274492,-0.0470947287977
0.4584,-1.33705792323,-0.0470947287977
0.4586,-1.22661552887,-0.0470947287977
0.4588,-1.11382329633,-0.0470947287977
0.459,-1.07622588548,-0.0470947287977
0.4592,-1.11382329633,-0.0470947287977
0.4594,-1.11382329633,-0.0470947287977
0.4596,-1.18901811802,-0.0470947287977
0.4598,-1.18901811802,-0.0470947287977
0.46,-1.11382329633,-0.0470947287977
0.4602,-1.07622588548,-0.0470947287977
0.4604,-1.00103106379,-0.0470947287977
0.4606,-0.925836242095,-0.0470947287977
0.4608,-0.888238831249,-0.0470947287977
0.461,-0.888238831249,-0.0470947287977
0.4612,-0.888238831249,-0.0470947287977
0.4614,-0.925836242095,-0.0470947287977
0.4616,-0.963433652942,-0.0470947287977
0.4618,-0.925836242095,-0.0470947287977
0.462,-0.815393847734,-0.0470947287977
0.4622,-0.665004204347,-0.0470947287977
0.4624,-0.589809382654,-0.0470947287977
0.4626,-0.514614560961,-0.0470947287977
0.4628,-0.477017150115,-0.0470947287977
0.463,-0.477017150115,-0.0470947287977
0.4632,-0.401822328422,-0.0470947287977
0.4634,-0.364224917575,-0.0470947287977
0.4636,-0.328977344907,-0.0470947287977
0.4638,-0.216185112367,-0.0470947287977
0.464,-0.140990290674,-0.0470947287977
0.4642,-0.0281980581349,-0.0470947287977
0.4644,0.0845941744046,-0.0470947287977
0.4646,0.195036568766,-0.0470947287977
0.4648,0.15743915792,-0.0470947287977
0.465,0.195036568766,-0.0470947287977
0.4652,0.15743915792,-0.0470947287977
0.4654,0.195036568766,-0.0470947287977
0.4656,0.270231390459,-0.0470947287977
0.4658,0.345426212152,-0.0470947287977
0.466,0.420621033845,-0.0470947287977
0.4662,0.458218444692,-0.0470947287977
0.4664,0.495815855538,-0.0470947287977
0.4666,0.533413266385,-0.0470947287977
0.4668,0.533413266385,-0.0470947287977
0.467,0.495815855538,-0.0470947287977
0.4672,0.495815855538,-0.0470947287977
0.4674,0.533413266385,-0.0470947287977
0.4676,0.571010677231,-0.0470947287977
0.4678,0.681453071593,-0.0470947287977
0.468,0.831842714979,-0.0470947287977
0.4682,0.869440125825,-0.0470947287977
0.4684,0.907037536672,-0.0470947287977
0.4686,0.869440125825,-0.0470947287977
0.4688,0.869440125825,-0.0470947287977
0.469,0.907037536672,-0.0470947287977
0.4692,0.944634947518,-0.0470947287977
0.4694,1.01982976921,-0.0470947287977
0.4696,1.13262200175,-0.0470947287977
0.4698,1.16786957442,-0.0470947287977
0.47,1.20546698527,-0.0470947287977
0.4702,1.28066180696,-0.0470947287977
0.4704,1.24306439611,-0.0470947287977
0.4706,1.20546698527,-0.0470947287977
0.4708,1.16786957442,-0.0470947287977
0.471,1.13262200175,-0.0470947287977
0.4712,1.16786957442,-0.0470947287977
0.4714,1.20546698527,-0.0470947287977
0.4716,1.24306439611,-0.0470947287977
0.4718,1.28066180696,-0.0470947287977
0.472,1.20546698527,-0.0470947287977
0.4722,1.20546698527,-0.0470947287977
0.4724,1.13262200175,-0.0470947287977
0.4726,1.0950245909,-0.0470947287977
0.4728,1.05742718006,-0.0470947287977
0.473,1.01982976921,-0.0470947287977
0.4732,1.01982976921,-0.0470947287977
0.4734,1.0950245909,-0.0470947287977
0.4736,1.13262200175,-0.0470947287977
0.4738,1.16786957442,-0.0470947287977
0.474,1.16786957442,-0.0470947287977
0.4742,1.0950245909,-0.0470947287977
0.4744,1.01982976921,-0.0470947287977
0.4746,0.944634947518,-0.0470947287977
0.4748,0.907037536672,-0.0470947287977
0.475,0.982232358365,-0.0470947287977
0.4752,1.01982976921,-0.0470947287977
0.4754,1.01982976921,-0.0470947287977
0.4756,0.982232358365,-0.0470947287977
0.4758,0.944634947518,-0.0470947287977
0.476,0.869440125825,-0.0470947287977
0.4762,0.794245304132,-0.0470947287977
0.4764,0.681453071593,-0.0470947287977
0.4766,0.608608088078,-0.0470947287977
0.4768,0.571010677231,-0.0470947287977
0.477,0.571010677231,-0.0470947287977
0.4772,0.571010677231,-0.0470947287977
0.4774,0.571010677231,-0.0470947287977
0.4776,0.533413266385,-0.0470947287977
0.4778,0.420621033845,-0.0470947287977
0.478,0.307828801306,-0.0470947287977
0.4782,0.232633979613,-0.0470947287977
0.4784,0.15743915792,-0.0470947287977
0.4786,0.0845941744046,-0.0470947287977
0.4788,0.0845941744046,-0.0470947287977
0.479,0.0845941744046,-0.0470947287977
0.4792,0.122191585251,-0.0470947287977
0.4794,0.0845941744046,-0.0470947287977
0.4796,0.0845941744046,-0.0470947287977
0.4798,0.00939935271163,-0.0470947287977
0.48,-0.0657954689814,-0.0470947287977
0.4802,-0.178587701521,-0.0470947287977
0.4804,-0.216185112367,-0.0470947287977
0.4806,-0.253782523214,-0.0470947287977
0.4808,-0.216185112367,-0.0470947287977
0.481,-0.178587701521,-0.0470947287977
0.4812,-0.178587701521,-0.0470947287977
0.4814,-0.253782523214,-0.0470947287977
0.4816,-0.328977344907,-0.0470947287977
0.4818,-0.401822328422,-0.0470947287977
0.482,-0.514614560961,-0.0470947287977
0.4822,-0.589809382654,-0.0470947287977
0.4824,-0.589809382654,-0.0470947287977
0.4826,-0.627406793501,-0.0470947287977
0.4828,-0.627406793501,-0.0470947287977
0.483,-0.627406793501,-0.0470947287977
0.4832,-0.627406793501,-0.0470947287977
0.4834,-0.665004204347,-0.0470947287977
0.4836,-0.777796436887,-0.0470947287977
0.4838,-0.888238831249,-0.0470947287977
0.484,-0.925836242095,-0.0470947287977
0.4842,-0.925836242095,-0.0470947287977
0.4844,-0.888238831249,-0.0470947287977
0.4846,-0.815393847734,-0.0470947287977
0.4848,-0.777796436887,-0.0470947287977
0.485,-0.815393847734,-0.0470947287977
0.4852,-0.815393847734,-0.0470947287977
0.4854,-0.850641420402,-0.0470947287977
0.4856,-0.888238831249,-0.0470947287977
0.4858,-0.925836242095,-0.0470947287977
0.486,-0.963433652942,-0.0470947287977
0.4862,-0.925836242095,-0.0470947287977
0.4864,-0.888238831249,-0.0470947287977
0.4866,-0.815393847734,-0.0470947287977
0.4868,-0.777796436887,-0.0470947287977
0.487,-0.777796436887,-0.0470947287977
0.4872,-0.850641420402,-0.0470947287977
0.4874,-0.925836242095,-0.0470947287977
0.4876,-1.00103106379,-0.0470947287977
0.4878,-1.00103106379,-0.0470947287977
0.488,-0.963433652942,-0.0470947287977
0.4882,-0.888238831249,-0.0470947287977
0.4884,-0.850641420402,-0.0470947287977
0.4886,-0.777796436887,-0.0470947287977
0.4888,-0.777796436887,-0.0470947287977
0.489,-0.777796436887,-0.0470947287977
0.4892,-0.777796436887,-0.0470947287977
0.4894,-0.850641420402,-0.0470947287977
0.4896,-0.850641420402,-0.0470947287977
0.4898,-0.815393847734,-0.0470947287977
0.49,-0.740199026041,-0.0470947287977
0.4902,-0.627406793501,-0.0470947287977
0.4904,-0.514614560961,-0.0470947287977
0.4906,-0.477017150115,-0.0470947287977
0.4908,-0.477017150115,-0.0470947287977
0.491,-0.514614560961,-0.0470947287977
0.4912,-0.514614560961,-0.0470947287977
0.4914,-0.514614560961,-0.0470947287977
0.4916,-0.514614560961,-0.0470947287977
0.4918,-0.477017150115,-0.0470947287977
0.492,-0.401822328422,-0.0470947287977
0.4922,-0.328977344907,-0.0470947287977
0.4924,-0.253782523214,-0.0470947287977
0.4926,-0.216185112367,-0.0470947287977
0.4928,-0.253782523214,-0.0470947287977
0.493,-0.29137993406,-0.0470947287977
0.4932,-0.29137993406,-0.0470947287977
0.4934,-0.29137993406,-0.0470947287977
0.4936,-0.216185112367,-0.0470947287977
0.4938,-0.140990290674,-0.0470947287977
0.494,-0.0657954689814,-0.0470947287977
0.4942,-0.0281980581349,-0.0470947287977
0.4944,0.00939935271163,-0.0470947287977
0.4946,0.0469967635581,-0.0470947287977
0.4948,0.0469967635581,-0.0470947287977
0.495,0.00939935271163,-0.0470947287977
0.4952,0.0469967635581,-0.0470947287977
0.4954,0.0845941744046,-0.0470947287977
0.4956,0.122191585251,-0.0470947287977
0.4958,0.232633979613,-0.0470947287977
0.496,0.307828801306,-0.0470947287977
0.4962,0.383023622999,-0.0470947287977
0.4964,0.420621033845,-0.0470947287977
0.4966,0.383023622999,-0.0470947287977
0.4968,0.307828801306,-0.0470947287977
0.497,0.307828801306,-0.0470947287977
0.4972,0.345426212152,-0.0470947287977
0.4974,0.420621033845,-0.0470947287977
0.4976,0.458218444692,-0.0470947287977
0.4978,0.533413266385,-0.0470947287977
0.498,0.571010677231,-0.0470947287977
0.4982,0.571010677231,-0.0470947287977
0.4984,0.571010677231,-0.0470947287977
0.4986,0.533413266385,-0.0470947287977
0.4988,0.495815855538,-0.0470947287977
0.499,0.458218444692,-0.0470947287977
0.4992,0.495815855538,-0.0470947287977
0.4994,0.571010677231,-0.0470947287977
0.4996,0.646205498924,-0.0470947287977
0.4998,0.681453071593,-0.0470947287977
0.5,0.681453071593,-0.0470947287977
0.5002,0.681453071593,-0.0470947287977
0.5004,0.646205498924,-0.0470947287977
0.5006,0.608608088078,-0.0470947287977
0.5008,0.608608088078,-0.0470947287977
0.501,0.608608088078,-0.0470947287977
0.5012,0.646205498924,-0.0470947287977
0.5014,0.681453071593,-0.0470947287977
0.5016,0.719050482439,-0.0470947287977
0.5018,0.794245304132,-0.0470947287977
0.502,0.756647893286,-0.0470947287977
0.5022,0.719050482439,-0.0470947287977
0.5024,0.646205498924,-0.0470947287977
0.5026,0.608608088078,-0.0470947287977
0.5028,0.571010677231,-0.0470947287977
0.503,0.571010677231,-0.0470947287977
0.5032,0.646205498924,-0.0470947287977
0.5034,0.681453071593,-0.0470947287977
0.5036,0.681453071593,-0.0470947287977
0.5038,0.646205498924,-0.0470947287977
0.504,0.571010677231,-0.0470947287977
0.5042,0.533413266385,-0.0470947287977
0.5044,0.495815855538,-0.0470947287977
0.5046,0.420621033845,-0.0470947287977
0.5048,0.420621033845,-0.0470947287977
0.505,0.420621033845,-0.0470947287977
0.5052,0.495815855538,-0.0470947287977
0.5054,0.495815855538,-0.0470947287977
0.5056,0.495815855538,-0.0470947287977
0.5058,0.495815855538,-0.0470947287977
0.506,0.420621033845,-0.0470947287977
0.5062,0.307828801306,-0.0470947287977
0.5064,0.270231390459,-0.0470947287977
0.5066,0.270231390459,-0.0470947287977
0.5068,0.270231390459,-0.0470947287977
0.507,0.307828801306,-0.0470947287977
0.5072,0.307828801306,-0.0470947287977
0.5074,0.270231390459,-0.0470947287977
0.5076,0.270231390459,-0.0470947287977
0.5078,0.232633979613,-0.0470947287977
0.508,0.122191585251,-0.0470947287977
0.5082,0.0469967635581,-0.0470947287977
0.5084,0.00939935271163,-0.0470947287977
0.5086,-0.0281980581349,-0.0470947287977
0.5088,0.00939935271163,-0.0470947287977
0.509,0.0469967635581,-0.0470947287977
0.5092,0.0469967635581,-0.0470947287977
0.5094,-0.0281980581349,-0.0470947287977
0.5096,-0.103392879828,-0.0470947287977
0.5098,-0.178587701521,-0.0470947287977
0.51,-0.253782523214,-0.0470947287977
0.5102,-0.253782523214,-0.0470947287977
0.5104,-0.29137993406,-0.0470947287977
0.5106,-0.29137993406,-0.0470947287977
0.5108,-0.253782523214,-0.0470947287977
0.511,-0.216185112367,-0.0470947287977
0.5112,-0.216185112367,-0.0470947287977
0.5114,-0.253782523214,-0.0470947287977
0.5116,-0.328977344907,-0.0470947287977
0.5118,-0.401822328422,-0.0470947287977
0.512,-0.439419739268,-0.0470947287977
0.5122,-0.439419739268,-0.0470947287977
0.5124,-0.401822328422,-0.0470947287977
0.5126,-0.364224917575,-0.0470947287977
0.5128,-0.364224917575,-0.0470947287977
0.513,-0.364224917575,-0.0470947287977
0.5132,-0.401822328422,-0.0470947287977
0.5134,-0.439419739268,-0.0470947287977
0.5136,-0.477017150115,-0.0470947287977
0.5138,-0.514614560961,-0.0470947287977
0.514,-0.589809382654,-0.0470947287977
0.5142,-0.589809382654,-0.0470947287977
0.5144,-0.552211971808,-0.0470947287977
0.5146,-0.514614560961,-0.0470947287977
0.5148,-0.477017150115,-0.0470947287977
0.515,-0.477017150115,-0.0470947287977
0.5152,-0.514614560961,-0.0470947287977
0.5154,-0.552211971808,-0.0470947287977
0.5156,-0.627406793501,-0.0470947287977
0.5158,-0.627406793501,-0.0470947287977
0.516,-0.589809382654,-0.0470947287977
0.5162,-0.514614560961,-0.0470947287977
0.5164,-0.514614560961,-0.0470947287977
0.5166,-0.477017150115,-0.0470947287977
0.5168,-0.439419739268,-0.0470947287977
0.517,-0.401822328422,-0.0470947287977
0.5172,-0.477017150115,-0.0470947287977
0.5174,-0.477017150115,-0.0470947287977
0.5176,-0.514614560961,-0.0470947287977
0.5178,-0.514614560961,-0.0470947287977
0.518,-0.514614560961,-0.0470947287977
0.5182,-0.401822328422,-0.0470947287977
0.5184,-0.328977344907,-0.0470947287977
0.5186,-0.328977344907,-0.0470947287977
0.5188,-0.328977344907,-0.0470947287977
0.519,-0.364224917575,-0.0470947287977
0.5192,-0.401822328422,-0.0470947287977
0.5194,-0.401822328422,-0.0470947287977
0.5196,-0.364224917575,-0.0470947287977
0.5198,-0.364224917575,-0.0470947287977
0.52,-0.29137993406,-0.0470947287977
0.5202,-0.216185112367,-0.0470947287977
0.5204,-0.178587701521,-0.0470947287977
0.5206,-0.140990290674,-0.0470947287977
0.5208,-0.140990290674,-0.0470947287977
0.521,-0.178587701521,-0.0470947287977
0.5212,-0.178587701521,-0.0470947287977
0.5214,-0.178587701521,-0.0470947287977
0.5216,-0.103392879828,-0.0470947287977
0.5218,-0.0281980581349,-0.0470947287977
0.522,0.00939935271163,-0.0470947287977
0.5222,0.0845941744046,-0.0470947287977
0.5224,0.0845941744046,-0.0470947287977
0.5226,0.0845941744046,-0.0470947287977
0.5228,0.0469967635581,-0.0470947287977
0.523,0.0469967635581,-0.0470947287977
0.5232,0.0469967635581,-0.0470947287977
0.5234,0.0845941744046,-0.0470947287977
0.5236,0.0845941744046,-0.0470947287977
0.5238,0.122191585251,-0.0470947287977
0.524,0.195036568766,-0.0470947287977
0.5242,0.232633979613,-0.0470947287977
0.5244,0.232633979613,-0.0470947287977
0.5246,0.232633979613,-0.0470947287977
0.5248,0.195036568766,-0.0470947287977
0.525,0.195036568766,-0.0470947287977
0.5252,0.195036568766,-0.0470947287977
0.5254,0.232633979613,-0.0470947287977
0.5256,0.307828801306,-0.0470947287977
0.5258,0.345426212152,-0.0470947287977
0.526,0.383023622999,-0.0470947287977
0.5262,0.383023622999,-0.0470947287977
0.5264,0.383023622999,-0.0470947287977
0.5266,0.383023622999,-0.0470947287977
0.5268,0.383023622999,-0.0470947287977
0.527,0.345426212152,-0.0470947287977
0.5272,0.345426212152,-0.0470947287977
0.5274,0.383023622999,-0.0470947287977
0.5276,0.495815855538,-0.0470947287977
0.5278,0.495815855538,-0.0470947287977
0.528,0.495815855538,-0.0470947287977
0.5282,0.495815855538,-0.0470947287977
0.5284,0.420621033845,-0.0470947287977
0.5286,0.420621033845,-0.0470947287977
0.5288,0.383023622999,-0.0470947287977
0.529,0.420621033845,-0.0470947287977
0.5292,0.420621033845,-0.0470947287977
0.5294,0.420621033845,-0.0470947287977
0.5296,0.458218444692,-0.0470947287977
0.5298,0.495815855538,-0.0470947287977
0.53,0.495815855538,-0.0470947287977
0.5302,0.420621033845,-0.0470947287977
0.5304,0.383023622999,-0.0470947287977
0.5306,0.345426212152,-0.0470947287977
0.5308,0.307828801306,-0.0470947287977
0.531,0.345426212152,-0.0470947287977
0.5312,0.383023622999,-0.0470947287977
0.5314,0.420621033845,-0.0470947287977
0.5316,0.420621033845,-0.0470947287977
0.5318,0.383023622999,-0.0470947287977
0.532,0.345426212152,-0.0470947287977
0.5322,0.307828801306,-0.0470947287977
0.5324,0.270231390459,-0.0470947287977
0.5326,0.232633979613,-0.0470947287977
0.5328,0.232633979613,-0.0470947287977
0.533,0.270231390459,-0.0470947287977
0.5332,0.270231390459,-0.0470947287977
0.5334,0.307828801306,-0.0470947287977
0.5336,0.307828801306,-0.0470947287977
0.5338,0.270231390459,-0.0470947287977
0.534,0.195036568766,-0.0470947287977
0.5342,0.122191585251,-0.0470947287977
0.5344,0.0845941744046,-0.0470947287977
0.5346,0.0845941744046,-0.0470947287977
0.5348,0.0845941744046,-0.0470947287977
0.535,0.122191585251,-0.0470947287977
0.5352,0.122191585251,-0.0470947287977
0.5354,0.0845941744046,-0.0470947287977
0.5356,0.0845941744046,-0.0470947287977
0.5358,0.0469967635581,-0.0470947287977
0.536,-0.0281980581349,-0.0470947287977
0.5362,-0.103392879828,-0.0470947287977
0.5364,-0.140990290674,-0.0470947287977
0.5366,-0.103392879828,-0.0470947287977
0.5368,-0.103392879828,-0.0470947287977
0.537,-0.0281980581349,-0.0470947287977
0.5372,-0.0281980581349,-0.0470947287977
0.5374,-0.0657954689814,-0.0470947287977
0.5376,-0.140990290674,-0.0470947287977
0.5378,-0.216185112367,-0.0470947287977
0.538,-0.216185112367,-0.0470947287977
0.5382,-0.253782523214,-0.0470947287977
0.5384,-0.253782523214,-0.0470947287977
0.5386,-0.253782523214,-0.0470947287977
0.5388,-0.253782523214,-0.0470947287977
0.539,-0.216185112367,-0.0470947287977
0.5392,-0.253782523214,-0.0470947287977
0.5394,-0.253782523214,-0.0470947287977
0.5396,-0.328977344907,-0.0470947287977
0.5398,-0.364224917575,-0.0470947287977
0.54,-0.439419739268,-0.0470947287977
0.5402,-0.439419739268,-0.0470947287977
0.5404,-0.401822328422,-0.0470947287977
0.5406,-0.364224917575,-0.0470947287977
0.5408,-0.328977344907,-0.0470947287977
0.541,-0.328977344907,-0.0470947287977
0.5412,-0.364224917575,-0.0470947287977
0.5414,-0.439419739268,-0.0470947287977
0.5416,-0.477017150115,-0.0470947287977
0.5418,-0.514614560961,-0.0470947287977
0.542,-0.514614560961,-0.0470947287977
0.5422,-0.477017150115,-0.0470947287977
0.5424,-0.477017150115,-0.0470947287977
0.5426,-0.439419739268,-0.0470947287977
0.5428,-0.401822328422,-0.0470947287977
0.543,-0.401822328422,-0.0470947287977
0.5432,-0.401822328422,-0.0470947287977
0.5434,-0.477017150115,-0.0470947287977
0.5436,-0.514614560961,-0.0470947287977
0.5438,-0.514614560961,-0.0470947287977
0.544,-0.514614560961,-0.0470947287977
0.5442,-0.439419739268,-0.0470947287977
0.5444,-0.364224917575,-0.0470947287977
0.5446,-0.364224917575,-0.0470947287977
0.5448,-0.364224917575,-0.0470947287977
0.545,-0.364224917575,-0.0470947287977
0.5452,-0.401822328422,-0.0470947287977
0.5454,-0.439419739268,-0.0470947287977
0.5456,-0.439419739268,-0.0470947287977
0.5458,-0.477017150115,-0.0470947287977
0.546,-0.401822328422,-0.0470947287977
0.5462,-0.328977344907,-0.0470947287977
0.5464,-0.29137993406,-0.0470947287977
0.5466,-0.253782523214,-0.0470947287977
0.5468,-0.253782523214,-0.0470947287977
0.547,-0.29137993406,-0.0470947287977
0.5472,-0.328977344907,-0.0470947287977
0.5474,-0.328977344907,-0.0470947287977
0.5476,-0.29137993406,-0.0470947287977
0.5478,-0.216185112367,-0.0470947287977
0.548,-0.178587701521,-0.0470947287977
0.5482,-0.140990290674,-0.0470947287977
0.5484,-0.103392879828,-0.0470947287977
0.5486,-0.0281980581349,-0.0470947287977
0.5488,-0.0281980581349,-0.0470947287977
0.549,-0.0657954689814,-0.0470947287977
0.5492,-0.0657954689814,-0.0470947287977
0.5494,-0.103392879828,-0.0470947287977
0.5496,-0.0657954689814,-0.0470947287977
0.5498,0.00939935271163,-0.0470947287977
0.55,0.0845941744046,-0.0470947287977
0.5502,0.122191585251,-0.0470947287977
0.5504,0.122191585251,-0.0470947287977
0.5506,0.15743915792,-0.0470947287977
0.5508,0.15743915792,-0.0470947287977
0.551,0.122191585251,-0.0470947287977
0.5512,0.122191585251,-0.0470947287977
0.5514,0.122191585251,-0.0470947287977
0.5516,0.195036568766,-0.0470947287977
0.5518,0.232633979613,-0.0470947287977
0.552,0.270231390459,-0.0470947287977
0.5522,0.345426212152,-0.0470947287977
0.5524,0.345426212152,-0.0470947287977
0.5526,0.345426212152,-0.0470947287977
0.5528,0.307828801306,-0.0470947287977
0.553,0.270231390459,-0.0470947287977
0.5532,0.307828801306,-0.0470947287977
0.5534,0.383023622999,-0.0470947287977
0.5536,0.420621033845,-0.0470947287977
0.5538,0.495815855538,-0.0470947287977
0.554,0.495815855538,-0.0470947287977
0.5542,0.533413266385,-0.0470947287977
0.5544,0.495815855538,-0.0470947287977
0.5546,0.495815855538,-0.0470947287977
0.5548,0.458218444692,-0.0470947287977
0.555,0.458218444692,-0.0470947287977
0.5552,0.458218444692,-0.0470947287977
0.5554,0.495815855538,-0.0470947287977
0.5556,0.533413266385,-0.0470947287977
0.5558,0.608608088078,-0.0470947287977
0.556,0.608608088078,-0.0470947287977
0.5562,0.571010677231,-0.0470947287977
0.5564,0.533413266385,-0.0470947287977
0.5566,0.495815855538,-0.0470947287977
0.5568,0.495815855538,-0.0470947287977
0.557,0.495815855538,-0.0470947287977
0.5572,0.533413266385,-0.0470947287977
0.5574,0.533413266385,-0.0470947287977
0.5576,0.571010677231,-0.0470947287977
0.5578,0.571010677231,-0.0470947287977
0.558,0.571010677231,-0.0470947287977
0.5582,0.571010677231,-0.0470947287977
0.5584,0.533413266385,-0.0470947287977
0.5586,0.495815855538,-0.0470947287977
0.5588,0.458218444692,-0.0470947287977
0.559,0.458218444692,-0.0470947287977
0.5592,0.495815855538,-0.0470947287977
0.5594,0.533413266385,-0.0470947287977
0.5596,0.533413266385,-0.0470947287977
0.5598,0.533413266385,-0.0470947287977
0.56,0.458218444692,-0.0470947287977
0.5602,0.420621033845,-0.0470947287977
0.5604,0.383023622999,-0.0470947287977
0.5606,0.307828801306,-0.0470947287977
0.5608,0.307828801306,-0.0470947287977
0.561,0.270231390459,-0.0470947287977
0.5612,0.307828801306,-0.0470947287977
0.5614,0.383023622999,-0.0470947287977
0.5616,0.345426212152,-0.0470947287977
0.5618,0.307828801306,-0.0470947287977
0.562,0.232633979613,-0.0470947287977
0.5622,0.195036568766,-0.0470947287977
0.5624,0.122191585251,-0.0470947287977
0.5626,0.122191585251,-0.0470947287977
0.5628,0.122191585251,-0.0470947287977
0.563,0.195036568766,-0.0470947287977
0.5632,0.15743915792,-0.0470947287977
0.5634,0.15743915792,-0.0470947287977
0.5636,0.122191585251,-0.0470947287977
0.5638,0.0845941744046,-0.0470947287977
0.564,0.00939935271163,-0.0470947287977
0.5642,-0.0281980581349,-0.0470947287977
0.5644,-0.103392879828,-0.0470947287977
0.5646,-0.103392879828,-0.0470947287977
0.5648,-0.103392879828,-0.0470947287977
0.565,-0.0657954689814,-0.0470947287977
0.5652,-0.0657954689814,-0.0470947287977
0.5654,-0.103392879828,-0.0470947287977
0.5656,-0.178587701521,-0.0470947287977
0.5658,-0.29137993406,-0.0470947287977
0.566,-0.29137993406,-0.0470947287977
0.5662,-0.328977344907,-0.0470947287977
0.5664,-0.328977344907,-0.0470947287977
0.5666,-0.328977344907,-0.0470947287977
0.5668,-0.328977344907,-0.0470947287977
0.567,-0.328977344907,-0.0470947287977
0.5672,-0.29137993406,-0.0470947287977
0.5674,-0.328977344907,-0.0470947287977
0.5676,-0.328977344907,-0.0470947287977
0.5678,-0.439419739268,-0.0470947287977
0.568,-0.477017150115,-0.0470947287977
0.5682,-0.514614560961,-0.0470947287977
0.5684,-0.477017150115,-0.0470947287977
0.5686,-0.439419739268,-0.0470947287977
0.5688,-0.401822328422,-0.0470947287977
0.569,-0.401822328422,-0.0470947287977
0.5692,-0.477017150115,-0.0470947287977
0.5694,-0.514614560961,-0.0470947287977
0.5696,-0.514614560961,-0.0470947287977
0.5698,-0.589809382654,-0.0470947287977
0.57,-0.589809382654,-0.0470947287977
0.5702,-0.589809382654,-0.0470947287977
0.5704,-0.589809382654,-0.0470947287977
0.5706,-0.552211971808,-0.0470947287977
0.5708,-0.514614560961,-0.0470947287977
0.571,-0.514614560961,-0.0470947287977
0.5712,-0.589809382654,-0.0470947287977
0.5714,-0.627406793501,-0.0470947287977
0.5716,-0.665004204347,-0.0470947287977
0.5718,-0.665004204347,-0.0470947287977
0.572,-0.627406793501,-0.0470947287977
0.5722,-0.589809382654,-0.0470947287977
0.5724,-0.514614560961,-0.0470947287977
0.5726,-0.514614560961,-0.0470947287977
0.5728,-0.514614560961,-0.0470947287977
0.573,-0.552211971808,-0.0470947287977
0.5732,-0.514614560961,-0.0470947287977
0.5734,-0.552211971808,-0.0470947287977
0.5736,-0.552211971808,-0.0470947287977
0.5738,-0.552211971808,-0.0470947287977
0.574,-0.552211971808,-0.0470947287977
0.5742,-0.477017150115,-0.0470947287977
0.5744,-0.401822328422,-0.0470947287977
0.5746,-0.401822328422,-0.0470947287977
0.5748,-0.364224917575,-0.0470947287977
0.575,-0.401822328422,-0.0470947287977
0.5752,-0.401822328422,-0.0470947287977
0.5754,-0.477017150115,-0.0470947287977
0.5756,-0.401822328422,-0.0470947287977
0.5758,-0.401822328422,-0.0470947287977
0.576,-0.328977344907,-0.0470947287977
0.5762,-0.328977344907,-0.0470947287977
0.5764,-0.253782523214,-0.0470947287977
0.5766,-0.253782523214,-0.0470947287977
0.5768,-0.216185112367,-0.0470947287977
0.577,-0.216185112367,-0.0470947287977
0.5772,-0.253782523214,-0.0470947287977
0.5774,-0.253782523214,-0.0470947287977
0.5776,-0.216185112367,-0.0470947287977
0.5778,-0.140990290674,-0.0470947287977
0.578,-0.0657954689814,-0.0470947287977
0.5782,-0.0281980581349,-0.0470947287977
0.5784,-0.0281980581349,-0.0470947287977
0.5786,-0.0281980581349,-0.0470947287977
0.5788,-0.0281980581349,-0.0470947287977
0.579,-0.0281980581349,-0.0470947287977
0.5792,0.00939935271163,-0.0470947287977
0.5794,0.0469967635581,-0.0470947287977
0.5796,0.0845941744046,-0.0470947287977
0.5798,0.122191585251,-0.0470947287977
0.58,0.232633979613,-0.0470947287977
0.5802,0.270231390459,-0.0470947287977
0.5804,0.270231390459,-0.0470947287977
0.5806,0.270231390459,-0.0470947287977
0.5808,0.270231390459,-0.0470947287977
0.581,0.232633979613,-0.0470947287977
0.5812,0.270231390459,-0.0470947287977
0.5814,0.307828801306,-0.0470947287977
0.5816,0.383023622999,-0.0470947287977
0.5818,0.420621033845,-0.0470947287977
0.582,0.458218444692,-0.0470947287977
0.5822,0.458218444692,-0.0470947287977
0.5824,0.420621033845,-0.0470947287977
0.5826,0.420621033845,-0.0470947287977
0.5828,0.458218444692,-0.0470947287977
0.583,0.420621033845,-0.0470947287977
0.5832,0.458218444692,-0.0470947287977
0.5834,0.495815855538,-0.0470947287977
0.5836,0.571010677231,-0.0470947287977
0.5838,0.608608088078,-0.0470947287977
0.584,0.681453071593,-0.0470947287977
0.5842,0.646205498924,-0.0470947287977
0.5844,0.646205498924,-0.0470947287977
0.5846,0.571010677231,-0.0470947287977
0.5848,0.571010677231,-0.0470947287977
0.585,0.608608088078,-0.0470947287977
0.5852,0.646205498924,-0.0470947287977
0.5854,0.681453071593,-0.0470947287977
0.5856,0.719050482439,-0.0470947287977
0.5858,0.719050482439,-0.0470947287977
0.586,0.719050482439,-0.0470947287977
0.5862,0.719050482439,-0.0470947287977
0.5864,0.681453071593,-0.0470947287977
0.5866,0.608608088078,-0.0470947287977
0.5868,0.571010677231,-0.0470947287977
0.587,0.608608088078,-0.0470947287977
0.5872,0.646205498924,-0.0470947287977
0.5874,0.681453071593,-0.0470947287977
0.5876,0.681453071593,-0.0470947287977
0.5878,0.646205498924,-0.0470947287977
0.588,0.608608088078,-0.0470947287977
0.5882,0.571010677231,-0.0470947287977
0.5884,0.533413266385,-0.0470947287977
0.5886,0.495815855538,-0.0470947287977
0.5888,0.533413266385,-0.0470947287977
0.589,0.533413266385,-0.0470947287977
0.5892,0.533413266385,-0.0470947287977
0.5894,0.571010677231,-0.0470947287977
0.5896,0.571010677231,-0.0470947287977
0.5898,0.533413266385,-0.0470947287977
0.59,0.495815855538,-0.0470947287977
0.5902,0.420621033845,-0.0470947287977
0.5904,0.383023622999,-0.0470947287977
0.5906,0.383023622999,-0.0470947287977
0.5908,0.383023622999,-0.0470947287977
0.591,0.420621033845,-0.0470947287977
0.5912,0.420621033845,-0.0470947287977
0.5914,0.383023622999,-0.0470947287977
0.5916,0.345426212152,-0.0470947287977
0.5918,0.270231390459,-0.0470947287977
0.592,0.232633979613,-0.0470947287977
0.5922,0.122191585251,-0.0470947287977
0.5924,0.122191585251,-0.0470947287977
0.5926,0.0845941744046,-0.0470947287977
0.5928,0.0845941744046,-0.0470947287977
0.593,0.0845941744046,-0.0470947287977
0.5932,0.0845941744046,-0.0470947287977
0.5934,0.0845941744046,-0.0470947287977
0.5936,-0.0281980581349,-0.0470947287977
0.5938,-0.0657954689814,-0.0470947287977
0.594,-0.103392879828,-0.0470947287977
0.5942,-0.178587701521,-0.0470947287977
0.5944,-0.178587701521,-0.0470947287977
0.5946,-0.178587701521,-0.0470947287977
0.5948,-0.140990290674,-0.0470947287977
0.595,-0.140990290674,-0.0470947287977
0.5952,-0.178587701521,-0.0470947287977
0.5954,-0.178587701521,-0.0470947287977
0.5956,-0.216185112367,-0.0470947287977
0.5958,-0.29137993406,-0.0470947287977
0.596,-0.364224917575,-0.0470947287977
0.5962,-0.401822328422,-0.0470947287977
0.5964,-0.401822328422,-0.0470947287977
0.5966,-0.364224917575,-0.0470947287977
0.5968,-0.364224917575,-0.0470947287977
0.597,-0.328977344907,-0.0470947287977
0.5972,-0.439419739268,-0.0470947287977
0.5974,-0.477017150115,-0.0470947287977
0.5976,-0.514614560961,-0.0470947287977
0.5978,-0.589809382654,-0.0470947287977
0.598,-0.589809382654,-0.0470947287977
0.5982,-0.589809382654,-0.0470947287977
0.5984,-0.589809382654,-0.0470947287977
0.5986,-0.627406793501,-0.0470947287977
0.5988,-0.589809382654,-0.0470947287977
0.599,-0.589809382654,-0.0470947287977
0.5992,-0.627406793501,-0.0470947287977
0.5994,-0.627406793501,-0.0470947287977
0.5996,-0.740199026041,-0.0470947287977
0.5998,-0.740199026041,-0.0470947287977
0.6,-0.777796436887,-0.0470947287977
0.6002,-0.665004204347,-0.0470947287977
0.6004,-0.665004204347,-0.0470947287977
0.6006,-0.627406793501,-0.0470947287977
0.6008,-0.627406793501,-0.0470947287977
0.601,-0.665004204347,-0.0470947287977
0.6012,-0.665004204347,-0.0470947287977
0.6014,-0.665004204347,-0.0470947287977
0.6016,-0.702601615194,-0.0470947287977
0.6018,-0.702601615194,-0.0470947287977
0.602,-0.702601615194,-0.0470947287977
0.6022,-0.627406793501,-0.0470947287977
0.6024,-0.589809382654,-0.0470947287977
0.6026,-0.552211971808,-0.0470947287977
0.6028,-0.589809382654,-0.0470947287977
0.603,-0.627406793501,-0.0470947287977
0.6032,-0.665004204347,-0.0470947287977
0.6034,-0.665004204347,-0.0470947287977
0.6036,-0.665004204347,-0.0470947287977
0.6038,-0.627406793501,-0.0470947287977
0.604,-0.552211971808,-0.0470947287977
0.6042,-0.514614560961,-0.0470947287977
0.6044,-0.514614560961,-0.0470947287977
0.6046,-0.477017150115,-0.0470947287977
0.6048,-0.477017150115,-0.0470947287977
0.605,-0.477017150115,-0.0470947287977
0.6052,-0.477017150115,-0.0470947287977
0.6054,-0.477017150115,-0.0470947287977
0.6056,-0.439419739268,-0.0470947287977
0.6058,-0.364224917575,-0.0470947287977
0.606,-0.328977344907,-0.0470947287977
0.6062,-0.216185112367,-0.0470947287977
0.6064,-0.216185112367,-0.0470947287977
0.6066,-0.216185112367,-0.0470947287977
0.6068,-0.178587701521,-0.0470947287977
0.607,-0.253782523214,-0.0470947287977
0.6072,-0.178587701521,-0.0470947287977
0.6074,-0.178587701521,-0.0470947287977
0.6076,-0.140990290674,-0.0470947287977
0.6078,-0.0657954689814,-0.0470947287977
0.608,-0.0281980581349,-0.0470947287977
0.6082,0.0469967635581,-0.0470947287977
0.6084,0.0469967635581,-0.0470947287977
0.6086,0.0469967635581,-0.0470947287977
0.6088,0.00939935271163,-0.0470947287977
0.609,0.00939935271163,-0.0470947287977
0.6092,0.00939935271163,-0.0470947287977
0.6094,0.0845941744046,-0.0470947287977
0.6096,0.15743915792,-0.0470947287977
0.6098,0.232633979613,-0.0470947287977
0.61,0.270231390459,-0.0470947287977
0.6102,0.270231390459,-0.0470947287977
0.6104,0.270231390459,-0.0470947287977
0.6106,0.270231390459,-0.0470947287977
0.6108,0.270231390459,-0.0470947287977
0.611,0.307828801306,-0.0470947287977
0.6112,0.307828801306,-0.0470947287977
0.6114,0.383023622999,-0.0470947287977
0.6116,0.458218444692,-0.0470947287977
0.6118,0.533413266385,-0.0470947287977
0.612,0.533413266385,-0.0470947287977
0.6122,0.533413266385,-0.0470947287977
0.6124,0.533413266385,-0.0470947287977
0.6126,0.495815855538,-0.0470947287977
0.6128,0.495815855538,-0.0470947287977
0.613,0.533413266385,-0.0470947287977
0.6132,0.571010677231,-0.0470947287977
0.6134,0.608608088078,-0.0470947287977
0.6136,0.681453071593,-0.0470947287977
0.6138,0.681453071593,-0.0470947287977
0.614,0.681453071593,-0.0470947287977
0.6142,0.681453071593,-0.0470947287977
0.6144,0.681453071593,-0.0470947287977
0.6146,0.646205498924,-0.0470947287977
0.6148,0.608608088078,-0.0470947287977
0.615,0.646205498924,-0.0470947287977
0.6152,0.681453071593,-0.0470947287977
0.6154,0.719050482439,-0.0470947287977
0.6156,0.756647893286,-0.0470947287977
0.6158,0.794245304132,-0.0470947287977
0.616,0.719050482439,-0.0470947287977
0.6162,0.681453071593,-0.0470947287977
0.6164,0.681453071593,-0.0470947287977
0.6166,0.646205498924,-0.0470947287977
0.6168,0.646205498924,-0.0470947287977
0.617,0.646205498924,-0.0470947287977
0.6172,0.681453071593,-0.0470947287977
0.6174,0.681453071593,-0.0470947287977
0.6176,0.719050482439,-0.0470947287977
0.6178,0.719050482439,-0.0470947287977
0.618,0.646205498924,-0.0470947287977
0.6182,0.608608088078,-0.0470947287977
0.6184,0.571010677231,-0.0470947287977
0.6186,0.533413266385,-0.0470947287977
0.6188,0.571010677231,-0.0470947287977
0.619,0.608608088078,-0.0470947287977
0.6192,0.608608088078,-0.0470947287977
0.6194,0.608608088078,-0.0470947287977
0.6196,0.571010677231,-0.0470947287977
0.6198,0.533413266385,-0.0470947287977
0.62,0.458218444692,-0.0470947287977
0.6202,0.420621033845,-0.0470947287977
0.6204,0.383023622999,-0.0470947287977
0.6206,0.383023622999,-0.0470947287977
0.6208,0.345426212152,-0.0470947287977
0.621,0.345426212152,-0.0470947287977
0.6212,0.345426212152,-0.0470947287977
0.6214,0.307828801306,-0.0470947287977
0.6216,0.270231390459,-0.0470947287977
0.6218,0.195036568766,-0.0470947287977
0.622,0.122191585251,-0.0470947287977
0.6222,0.0845941744046,-0.0470947287977
0.6224,0.0469967635581,-0.0470947287977
0.6226,0.0845941744046,-0.0470947287977
0.6228,0.0845941744046,-0.0470947287977
0.623,0.0845941744046,-0.0470947287977
0.6232,0.0469967635581,-0.0470947287977
0.6234,0.00939935271163,-0.0470947287977
0.6236,-0.0281980581349,-0.0470947287977
0.6238,-0.103392879828,-0.0470947287977
0.624,-0.140990290674,-0.0470947287977
0.6242,-0.178587701521,-0.0470947287977
0.6244,-0.178587701521,-0.0470947287977
0.6246,-0.178587701521,-0.0470947287977
0.6248,-0.178587701521,-0.0470947287977
0.625,-0.178587701521,-0.0470947287977
0.6252,-0.216185112367,-0.0470947287977
0.6254,-0.29137993406,-0.0470947287977
0.6256,-0.328977344907,-0.0470947287977
0.6258,-0.401822328422,-0.0470947287977
0.626,-0.439419739268,-0.0470947287977
0.6262,-0.477017150115,-0.0470947287977
0.6264,-0.477017150115,-0.0470947287977
0.6266,-0.477017150115,-0.0470947287977
0.6268,-0.477017150115,-0.0470947287977
0.627,-0.477017150115,-0.0470947287977
0.6272,-0.514614560961,-0.0470947287977
0.6274,-0.589809382654,-0.0470947287977
0.6276,-0.627406793501,-0.0470947287977
0.6278,-0.665004204347,-0.0470947287977
0.628,-0.702601615194,-0.0470947287977
0.6282,-0.627406793501,-0.0470947287977
0.6284,-0.627406793501,-0.0470947287977
0.6286,-0.627406793501,-0.0470947287977
0.6288,-0.627406793501,-0.0470947287977
0.629,-0.665004204347,-0.0470947287977
0.6292,-0.665004204347,-0.0470947287977
0.6294,-0.740199026041,-0.0470947287977
0.6296,-0.777796436887,-0.0470947287977
0.6298,-0.777796436887,-0.0470947287977
0.63,-0.740199026041,-0.0470947287977
0.6302,-0.740199026041,-0.0470947287977
0.6304,-0.702601615194,-0.0470947287977
0.6306,-0.665004204347,-0.0470947287977
0.6308,-0.665004204347,-0.0470947287977
0.631,-0.702601615194,-0.0470947287977
0.6312,-0.740199026041,-0.0470947287977
0.6314,-0.777796436887,-0.0470947287977
0.6316,-0.777796436887,-0.0470947287977
0.6318,-0.777796436887,-0.0470947287977
0.632,-0.702601615194,-0.0470947287977
0.6322,-0.665004204347,-0.0470947287977
0.6324,-0.627406793501,-0.0470947287977
0.6326,-0.627406793501,-0.0470947287977
0.6328,-0.627406793501,-0.0470947287977
0.633,-0.665004204347,-0.0470947287977
0.6332,-0.665004204347,-0.0470947287977
0.6334,-0.665004204347,-0.0470947287977
0.6336,-0.665004204347,-0.0470947287977
0.6338,-0.589809382654,-0.0470947287977
0.634,-0.552211971808,-0.0470947287977
0.6342,-0.514614560961,-0.0470947287977
0.6344,-0.477017150115,-0.0470947287977
0.6346,-0.477017150115,-0.0470947287977
0.6348,-0.477017150115,-0.0470947287977
0.635,-0.477017150115,-0.0470947287977
0.6352,-0.477017150115,-0.0470947287977
0.6354,-0.439419739268,-0.0470947287977
0.6356,-0.401822328422,-0.0470947287977
0.6358,-0.328977344907,-0.0470947287977
0.636,-0.29137993406,-0.0470947287977
0.6362,-0.216185112367,-0.0470947287977
0.6364,-0.178587701521,-0.0470947287977
0.6366,-0.216185112367,-0.0470947287977
0.6368,-0.216185112367,-0.0470947287977
0.637,-0.216185112367,-0.0470947287977
0.6372,-0.216185112367,-0.0470947287977
0.6374,-0.103392879828,-0.0470947287977
0.6376,-0.0657954689814,-0.0470947287977
0.6378,-0.0281980581349,-0.0470947287977
0.638,0.0469967635581,-0.0470947287977
0.6382,0.0469967635581,-0.0470947287977
0.6384,0.0469967635581,-0.0470947287977
0.6386,0.0469967635581,-0.0470947287977
0.6388,0.0845941744046,-0.0470947287977
0.639,0.0845941744046,-0.0470947287977
0.6392,0.122191585251,-0.0470947287977
0.6394,0.15743915792,-0.0470947287977
0.6396,0.232633979613,-0.0470947287977
0.6398,0.307828801306,-0.0470947287977
0.64,0.345426212152,-0.0470947287977
0.6402,0.383023622999,-0.0470947287977
0.6404,0.383023622999,-0.0470947287977
0.6406,0.307828801306,-0.0470947287977
0.6408,0.345426212152,-0.0470947287977
0.641,0.383023622999,-0.0470947287977
0.6412,0.495815855538,-0.0470947287977
0.6414,0.533413266385,-0.0470947287977
0.6416,0.571010677231,-0.0470947287977
0.6418,0.608608088078,-0.0470947287977
0.642,0.571010677231,-0.0470947287977
0.6422,0.608608088078,-0.0470947287977
0.6424,0.571010677231,-0.0470947287977
0.6426,0.571010677231,-0.0470947287977
0.6428,0.571010677231,-0.0470947287977
0.643,0.571010677231,-0.0470947287977
0.6432,0.646205498924,-0.0470947287977
0.6434,0.646205498924,-0.0470947287977
0.6436,0.681453071593,-0.0470947287977
0.6438,0.719050482439,-0.0470947287977
0.644,0.681453071593,-0.0470947287977
0.6442,0.681453071593,-0.0470947287977
0.6444,0.646205498924,-0.0470947287977
0.6446,0.646205498924,-0.0470947287977
0.6448,0.681453071593,-0.0470947287977
0.645,0.681453071593,-0.0470947287977
0.6452,0.719050482439,-0.0470947287977
0.6454,0.794245304132,-0.0470947287977
0.6456,0.794245304132,-0.0470947287977
0.6458,0.794245304132,-0.0470947287977
0.646,0.794245304132,-0.0470947287977
0.6462,0.719050482439,-0.0470947287977
0.6464,0.681453071593,-0.0470947287977
0.6466,0.681453071593,-0.0470947287977
0.6468,0.719050482439,-0.0470947287977
0.647,0.719050482439,-0.0470947287977
0.6472,0.756647893286,-0.0470947287977
0.6474,0.756647893286,-0.0470947287977
0.6476,0.719050482439,-0.0470947287977
0.6478,0.681453071593,-0.0470947287977
0.648,0.681453071593,-0.0470947287977
0.6482,0.646205498924,-0.0470947287977
0.6484,0.571010677231,-0.0470947287977
0.6486,0.608608088078,-0.0470947287977
0.6488,0.571010677231,-0.0470947287977
0.649,0.608608088078,-0.0470947287977
0.6492,0.608608088078,-0.0470947287977
0.6494,0.571010677231,-0.0470947287977
0.6496,0.533413266385,-0.0470947287977
0.6498,0.495815855538,-0.0470947287977
0.65,0.420621033845,-0.0470947287977
0.6502,0.345426212152,-0.0470947287977
0.6504,0.307828801306,-0.0470947287977
0.6506,0.307828801306,-0.0470947287977
0.6508,0.345426212152,-0.0470947287977
0.651,0.307828801306,-0.0470947287977
0.6512,0.307828801306,-0.0470947287977
0.6514,0.307828801306,-0.0470947287977
0.6516,0.232633979613,-0.0470947287977
0.6518,0.195036568766,-0.0470947287977
0.652,0.122191585251,-0.0470947287977
0.6522,0.122191585251,-0.0470947287977
0.6524,0.0845941744046,-0.0470947287977
0.6526,0.0845941744046,-0.0470947287977
0.6528,0.122191585251,-0.0470947287977
0.653,0.122191585251,-0.0470947287977
0.6532,0.0845941744046,-0.0470947287977
0.6534,0.00939935271163,-0.0470947287977
0.6536,-0.0281980581349,-0.0470947287977
0.6538,-0.103392879828,-0.0470947287977
0.654,-0.140990290674,-0.0470947287977
0.6542,-0.140990290674,-0.0470947287977
0.6544,-0.178587701521,-0.0470947287977
0.6546,-0.178587701521,-0.0470947287977
0.6548,-0.178587701521,-0.0470947287977
0.655,-0.216185112367,-0.0470947287977
0.6552,-0.29137993406,-0.0470947287977
0.6554,-0.328977344907,-0.0470947287977
0.6556,-0.401822328422,-0.0470947287977
0.6558,-0.477017150115,-0.0470947287977
0.656,-0.514614560961,-0.0470947287977
0.6562,-0.514614560961,-0.0470947287977
0.6564,-0.477017150115,-0.0470947287977
0.6566,-0.514614560961,-0.0470947287977
0.6568,-0.514614560961,-0.0470947287977
0.657,-0.514614560961,-0.0470947287977
0.6572,-0.589809382654,-0.0470947287977
0.6574,-0.627406793501,-0.0470947287977
0.6576,-0.665004204347,-0.0470947287977
0.6578,-0.665004204347,-0.0470947287977
0.658,-0.627406793501,-0.0470947287977
0.6582,-0.627406793501,-0.0470947287977
0.6584,-0.627406793501,-0.0470947287977
0.6586,-0.627406793501,-0.0470947287977
0.6588,-0.627406793501,-0.0470947287977
0.659,-0.665004204347,-0.0470947287977
0.6592,-0.702601615194,-0.0470947287977
0.6594,-0.777796436887,-0.0470947287977
0.6596,-0.777796436887,-0.0470947287977
0.6598,-0.777796436887,-0.0470947287977
0.66,-0.740199026041,-0.0470947287977
0.6602,-0.740199026041,-0.0470947287977
0.6604,-0.702601615194,-0.0470947287977
0.6606,-0.740199026041,-0.0470947287977
0.6608,-0.777796436887,-0.0470947287977
0.661,-0.815393847734,-0.0470947287977
0.6612,-0.815393847734,-0.0470947287977
0.6614,-0.815393847734,-0.0470947287977
0.6616,-0.850641420402,-0.0470947287977
0.6618,-0.815393847734,-0.0470947287977
0.662,-0.777796436887,-0.0470947287977
0.6622,-0.702601615194,-0.0470947287977
0.6624,-0.665004204347,-0.0470947287977
0.6626,-0.702601615194,-0.0470947287977
0.6628,-0.702601615194,-0.0470947287977
0.663,-0.702601615194,-0.0470947287977
0.6632,-0.702601615194,-0.0470947287977
0.6634,-0.665004204347,-0.0470947287977
0.6636,-0.627406793501,-0.0470947287977
0.6638,-0.589809382654,-0.0470947287977
0.664,-0.514614560961,-0.0470947287977
0.6642,-0.514614560961,-0.0470947287977
0.6644,-0.514614560961,-0.0470947287977
0.6646,-0.477017150115,-0.0470947287977
0.6648,-0.477017150115,-0.0470947287977
0.665,-0.477017150115,-0.0470947287977
0.6652,-0.477017150115,-0.0470947287977
0.6654,-0.439419739268,-0.0470947287977
0.6656,-0.364224917575,-0.0470947287977
0.6658,-0.29137993406,-0.0470947287977
0.666,-0.253782523214,-0.0470947287977
0.6662,-0.253782523214,-0.0470947287977
0.6664,-0.29137993406,-0.0470947287977
0.6666,-0.29137993406,-0.0470947287977
0.6668,-0.29137993406,-0.0470947287977
0.667,-0.253782523214,-0.0470947287977
0.6672,-0.178587701521,-0.0470947287977
0.6674,-0.178587701521,-0.0470947287977
0.6676,-0.103392879828,-0.0470947287977
0.6678,-0.0281980581349,-0.0470947287977
0.668,0.00939935271163,-0.0470947287977
0.6682,0.00939935271163,-0.0470947287977
0.6684,0.0469967635581,-0.0470947287977
0.6686,0.00939935271163,-0.0470947287977
0.6688,0.0845941744046,-0.0470947287977
0.669,0.0845941744046,-0.0470947287977
0.6692,0.122191585251,-0.0470947287977
0.6694,0.232633979613,-0.0470947287977
0.6696,0.307828801306,-0.0470947287977
0.6698,0.307828801306,-0.0470947287977
0.67,0.345426212152,-0.0470947287977
0.6702,0.383023622999,-0.0470947287977
0.6704,0.383023622999,-0.0470947287977
0.6706,0.383023622999,-0.0470947287977
0.6708,0.383023622999,-0.0470947287977
0.671,0.420621033845,-0.0470947287977
0.6712,0.495815855538,-0.0470947287977
0.6714,0.533413266385,-0.0470947287977
0.6716,0.571010677231,-0.0470947287977
0.6718,0.571010677231,-0.0470947287977
0.672,0.571010677231,-0.0470947287977
0.6722,0.533413266385,-0.0470947287977
0.6724,0.533413266385,-0.0470947287977
0.6726,0.533413266385,-0.0470947287977
0.6728,0.571010677231,-0.0470947287977
0.673,0.608608088078,-0.0470947287977
0.6732,0.681453071593,-0.0470947287977
0.6734,0.681453071593,-0.0470947287977
0.6736,0.719050482439,-0.0470947287977
0.6738,0.719050482439,-0.0470947287977
0.674,0.681453071593,-0.0470947287977
0.6742,0.681453071593,-0.0470947287977
0.6744,0.681453071593,-0.0470947287977
0.6746,0.719050482439,-0.0470947287977
0.6748,0.756647893286,-0.0470947287977
0.675,0.794245304132,-0.0470947287977
0.6752,0.869440125825,-0.0470947287977
0.6754,0.869440125825,-0.0470947287977
0.6756,0.869440125825,-0.0470947287977
0.6758,0.869440125825,-0.0470947287977
0.676,0.794245304132,-0.0470947287977
0.6762,0.719050482439,-0.0470947287977
0.6764,0.756647893286,-0.0470947287977
0.6766,0.794245304132,-0.0470947287977
0.6768,0.794245304132,-0.0470947287977
0.677,0.756647893286,-0.0470947287977
0.6772,0.794245304132,-0.0470947287977
0.6774,0.794245304132,-0.0470947287977
0.6776,0.719050482439,-0.0470947287977
0.6778,0.646205498924,-0.0470947287977
0.678,0.608608088078,-0.0470947287977
0.6782,0.571010677231,-0.0470947287977
0.6784,0.571010677231,-0.0470947287977
0.6786,0.608608088078,-0.0470947287977
0.6788,0.646205498924,-0.0470947287977
0.679,0.646205498924,-0.0470947287977
0.6792,0.608608088078,-0.0470947287977
0.6794,0.571010677231,-0.0470947287977
0.6796,0.533413266385,-0.0470947287977
0.6798,0.495815855538,-0.0470947287977
0.68,0.420621033845,-0.0470947287977
0.6802,0.420621033845,-0.0470947287977
0.6804,0.420621033845,-0.0470947287977
0.6806,0.420621033845,-0.0470947287977
0.6808,0.458218444692,-0.0470947287977
0.681,0.420621033845,-0.0470947287977
0.6812,0.420621033845,-0.0470947287977
0.6814,0.345426212152,-0.0470947287977
0.6816,0.270231390459,-0.0470947287977
0.6818,0.232633979613,-0.0470947287977
0.682,0.195036568766,-0.0470947287977
0.6822,0.15743915792,-0.0470947287977
0.6824,0.195036568766,-0.0470947287977
0.6826,0.15743915792,-0.0470947287977
0.6828,0.122191585251,-0.0470947287977
0.683,0.0845941744046,-0.0470947287977
0.6832,0.00939935271163,-0.0470947287977
0.6834,-0.0281980581349,-0.0470947287977
0.6836,-0.140990290674,-0.0470947287977
0.6838,-0.178587701521,-0.0470947287977
0.684,-0.178587701521,-0.0470947287977
0.6842,-0.178587701521,-0.0470947287977
0.6844,-0.178587701521,-0.0470947287977
0.6846,-0.140990290674,-0.0470947287977
0.6848,-0.178587701521,-0.0470947287977
0.685,-0.216185112367,-0.0470947287977
0.6852,-0.29137993406,-0.0470947287977
0.6854,-0.328977344907,-0.0470947287977
0.6856,-0.364224917575,-0.0470947287977
0.6858,-0.364224917575,-0.0470947287977
0.686,-0.364224917575,-0.0470947287977
0.6862,-0.364224917575,-0.0470947287977
0.6864,-0.364224917575,-0.0470947287977
0.6866,-0.328977344907,-0.0470947287977
0.6868,-0.401822328422,-0.0470947287977
0.687,-0.477017150115,-0.0470947287977
0.6872,-0.514614560961,-0.0470947287977
0.6874,-0.589809382654,-0.0470947287977
0.6876,-0.627406793501,-0.0470947287977
0.6878,-0.627406793501,-0.0470947287977
0.688,-0.627406793501,-0.0470947287977
0.6882,-0.627406793501,-0.0470947287977
0.6884,-0.627406793501,-0.0470947287977
0.6886,-0.627406793501,-0.0470947287977
0.6888,-0.702601615194,-0.0470947287977
0.689,-0.740199026041,-0.0470947287977
0.6892,-0.777796436887,-0.0470947287977
0.6894,-0.815393847734,-0.0470947287977
0.6896,-0.815393847734,-0.0470947287977
0.6898,-0.777796436887,-0.0470947287977
0.69,-0.777796436887,-0.0470947287977
0.6902,-0.702601615194,-0.0470947287977
0.6904,-0.702601615194,-0.0470947287977
0.6906,-0.702601615194,-0.0470947287977
0.6908,-0.777796436887,-0.0470947287977
0.691,-0.777796436887,-0.0470947287977
0.6912,-0.815393847734,-0.0470947287977
0.6914,-0.777796436887,-0.0470947287977
0.6916,-0.740199026041,-0.0470947287977
0.6918,-0.665004204347,-0.0470947287977
0.692,-0.665004204347,-0.0470947287977
0.6922,-0.627406793501,-0.0470947287977
0.6924,-0.627406793501,-0.0470947287977
0.6926,-0.665004204347,-0.0470947287977
0.6928,-0.665004204347,-0.0470947287977
0.693,-0.702601615194,-0.0470947287977
0.6932,-0.702601615194,-0.0470947287977
0.6934,-0.702601615194,-0.0470947287977
0.6936,-0.627406793501,-0.0470947287977
0.6938,-0.627406793501,-0.0470947287977
0.694,-0.589809382654,-0.0470947287977
0.6942,-0.589809382654,-0.0470947287977
0.6944,-0.627406793501,-0.0470947287977
0.6946,-0.627406793501,-0.0470947287977
0.6948,-0.627406793501,-0.0470947287977
0.695,-0.627406793501,-0.0470947287977
0.6952,-0.589809382654,-0.0470947287977
0.6954,-0.514614560961,-0.0470947287977
0.6956,-0.477017150115,-0.0470947287977
0.6958,-0.401822328422,-0.0470947287977
0.696,-0.364224917575,-0.0470947287977
0.6962,-0.328977344907,-0.0470947287977
0.6964,-0.328977344907,-0.0470947287977
0.6966,-0.328977344907,-0.0470947287977
0.6968,-0.29137993406,-0.0470947287977
0.697,-0.253782523214,-0.0470947287977
0.6972,-0.178587701521,-0.0470947287977
0.6974,-0.103392879828,-0.0470947287977
0.6976,-0.0657954689814,-0.0470947287977
0.6978,0.00939935271163,-0.0470947287977
0.698,0.00939935271163,-0.0470947287977
0.6982,0.00939935271163,-0.0470947287977
0.6984,0.00939935271163,-0.0470947287977
0.6986,-0.0281980581349,-0.0470947287977
0.6988,0.00939935271163,-0.0470947287977
0.699,0.0469967635581,-0.0470947287977
0.6992,0.0845941744046,-0.0470947287977
0.6994,0.122191585251,-0.0470947287977
0.6996,0.195036568766,-0.0470947287977
0.6998,0.195036568766,-0.0470947287977
0.7,0.195036568766,-0.0470947287977
0.7002,0.195036568766,-0.0470947287977
0.7004,0.195036568766,-0.0470947287977
0.7006,0.232633979613,-0.0470947287977
0.7008,0.270231390459,-0.0470947287977
0.701,0.307828801306,-0.0470947287977
0.7012,0.420621033845,-0.0470947287977
0.7014,0.420621033845,-0.0470947287977
0.7016,0.495815855538,-0.0470947287977
0.7018,0.533413266385,-0.0470947287977
0.702,0.495815855538,-0.0470947287977
0.7022,0.533413266385,-0.0470947287977
0.7024,0.533413266385,-0.0470947287977
0.7026,0.533413266385,-0.0470947287977
0.7028,0.571010677231,-0.0470947287977
0.703,0.646205498924,-0.0470947287977
0.7032,0.681453071593,-0.0470947287977
0.7034,0.719050482439,-0.0470947287977
0.7036,0.719050482439,-0.0470947287977
0.7038,0.719050482439,-0.0470947287977
0.704,0.681453071593,-0.0470947287977
0.7042,0.681453071593,-0.0470947287977
0.7044,0.646205498924,-0.0470947287977
0.7046,0.681453071593,-0.0470947287977
0.7048,0.681453071593,-0.0470947287977
0.705,0.719050482439,-0.0470947287977
0.7052,0.719050482439,-0.0470947287977
0.7054,0.756647893286,-0.0470947287977
0.7056,0.719050482439,-0.0470947287977
0.7058,0.681453071593,-0.0470947287977
0.706,0.681453071593,-0.0470947287977
0.7062,0.646205498924,-0.0470947287977
0.7064,0.681453071593,-0.0470947287977
0.7066,0.681453071593,-0.0470947287977
0.7068,0.756647893286,-0.0470947287977
0.707,0.794245304132,-0.0470947287977
0.7072,0.756647893286,-0.0470947287977
0.7074,0.756647893286,-0.0470947287977
0.7076,0.719050482439,-0.0470947287977
0.7078,0.681453071593,-0.0470947287977
0.708,0.681453071593,-0.0470947287977
0.7082,0.681453071593,-0.0470947287977
0.7084,0.681453071593,-0.0470947287977
0.7086,0.681453071593,-0.0470947287977
0.7088,0.719050482439,-0.0470947287977
0.709,0.681453071593,-0.0470947287977
0.7092,0.646205498924,-0.0470947287977
0.7094,0.571010677231,-0.0470947287977
0.7096,0.533413266385,-0.0470947287977
0.7098,0.495815855538,-0.0470947287977
0.71,0.458218444692,-0.0470947287977
0.7102,0.458218444692,-0.0470947287977
0.7104,0.495815855538,-0.0470947287977
0.7106,0.495815855538,-0.0470947287977
0.7108,0.495815855538,-0.0470947287977
0.711,0.458218444692,-0.0470947287977
0.7112,0.383023622999,-0.0470947287977
0.7114,0.307828801306,-0.0470947287977
0.7116,0.232633979613,-0.0470947287977
0.7118,0.232633979613,-0.0470947287977
0.712,0.195036568766,-0.0470947287977
0.7122,0.232633979613,-0.0470947287977
0.7124,0.232633979613,-0.0470947287977
0.7126,0.232633979613,-0.0470947287977
0.7128,0.232633979613,-0.0470947287977
0.713,0.195036568766,-0.0470947287977
0.7132,0.122191585251,-0.0470947287977
0.7134,0.0845941744046,-0.0470947287977
0.7136,0.0469967635581,-0.0470947287977
0.7138,0.00939935271163,-0.0470947287977
0.714,0.00939935271163,-0.0470947287977
0.7142,0.00939935271163,-0.0470947287977
0.7144,0.00939935271163,-0.0470947287977
0.7146,-0.0281980581349,-0.0470947287977
0.7148,-0.0281980581349,-0.0470947287977
0.715,-0.140990290674,-0.0470947287977
0.7152,-0.178587701521,-0.0470947287977
0.7154,-0.253782523214,-0.0470947287977
0.7156,-0.29137993406,-0.0470947287977
0.7158,-0.328977344907,-0.0470947287977
0.716,-0.328977344907,-0.0470947287977
0.7162,-0.328977344907,-0.0470947287977
0.7164,-0.328977344907,-0.0470947287977
0.7166,-0.364224917575,-0.0470947287977
0.7168,-0.401822328422,-0.0470947287977
0.717,-0.477017150115,-0.0470947287977
0.7172,-0.514614560961,-0.0470947287977
0.7174,-0.514614560961,-0.0470947287977
0.7176,-0.552211971808,-0.0470947287977
0.7178,-0.514614560961,-0.0470947287977
0.718,-0.477017150115,-0.0470947287977
0.7182,-0.477017150115,-0.0470947287977
0.7184,-0.477017150115,-0.0470947287977
0.7186,-0.514614560961,-0.0470947287977
0.7188,-0.514614560961,-0.0470947287977
0.719,-0.589809382654,-0.0470947287977
0.7192,-0.627406793501,-0.0470947287977
0.7194,-0.627406793501,-0.0470947287977
0.7196,-0.627406793501,-0.0470947287977
0.7198,-0.589809382654,-0.0470947287977
0.72,-0.589809382654,-0.0470947287977
0.7202,-0.589809382654,-0.0470947287977
0.7204,-0.627406793501,-0.0470947287977
0.7206,-0.627406793501,-0.0470947287977
0.7208,-0.702601615194,-0.0470947287977
0.721,-0.740199026041,-0.0470947287977
0.7212,-0.777796436887,-0.0470947287977
0.7214,-0.777796436887,-0.0470947287977
0.7216,-0.702601615194,-0.0470947287977
0.7218,-0.665004204347,-0.0470947287977
0.722,-0.627406793501,-0.0470947287977
0.7222,-0.627406793501,-0.0470947287977
0.7224,-0.665004204347,-0.0470947287977
0.7226,-0.665004204347,-0.0470947287977
0.7228,-0.702601615194,-0.0470947287977
0.723,-0.702601615194,-0.0470947287977
0.7232,-0.665004204347,-0.0470947287977
0.7234,-0.627406793501,-0.0470947287977
0.7236,-0.552211971808,-0.0470947287977
0.7238,-0.514614560961,-0.0470947287977
0.724,-0.514614560961,-0.0470947287977
0.7242,-0.514614560961,-0.0470947287977
0.7244,-0.514614560961,-0.0470947287977
0.7246,-0.552211971808,-0.0470947287977
0.7248,-0.514614560961,-0.0470947287977
0.725,-0.514614560961,-0.0470947287977
0.7252,-0.477017150115,-0.0470947287977
0.7254,-0.439419739268,-0.0470947287977
0.7256,-0.401822328422,-0.0470947287977
0.7258,-0.364224917575,-0.0470947287977
0.726,-0.364224917575,-0.0470947287977
0.7262,-0.401822328422,-0.0470947287977
0.7264,-0.401822328422,-0.0470947287977
0.7266,-0.401822328422,-0.0470947287977
0.7268,-0.401822328422,-0.0470947287977
0.727,-0.364224917575,-0.0470947287977
0.7272,-0.328977344907,-0.0470947287977
0.7274,-0.253782523214,-0.0470947287977
0.7276,-0.216185112367,-0.0470947287977
0.7278,-0.178587701521,-0.0470947287977
0.728,-0.178587701521,-0.0470947287977
0.7282,-0.178587701521,-0.0470947287977
0.7284,-0.178587701521,-0.0470947287977
0.7286,-0.103392879828,-0.0470947287977
0.7288,-0.103392879828,-0.0470947287977
0.729,-0.0281980581349,-0.0470947287977
0.7292,0.0845941744046,-0.0470947287977
0.7294,0.122191585251,-0.0470947287977
0.7296,0.122191585251,-0.0470947287977
0.7298,0.122191585251,-0.0470947287977
0.73,0.15743915792,-0.0470947287977
0.7302,0.122191585251,-0.0470947287977
0.7304,0.15743915792,-0.0470947287977
0.7306,0.15743915792,-0.0470947287977
0.7308,0.195036568766,-0.0470947287977
0.731,0.232633979613,-0.0470947287977
0.7312,0.307828801306,-0.0470947287977
0.7314,0.307828801306,-0.0470947287977
0.7316,0.345426212152,-0.0470947287977
0.7318,0.307828801306,-0.0470947287977
0.732,0.307828801306,-0.0470947287977
0.7322,0.270231390459,-0.0470947287977
0.7324,0.307828801306,-0.0470947287977
0.7326,0.345426212152,-0.0470947287977
0.7328,0.420621033845,-0.0470947287977
0.733,0.458218444692,-0.0470947287977
0.7332,0.495815855538,-0.0470947287977
0.7334,0.533413266385,-0.0470947287977
0.7336,0.533413266385,-0.0470947287977
0.7338,0.533413266385,-0.0470947287977
0.734,0.533413266385,-0.0470947287977
0.7342,0.533413266385,-0.0470947287977
0.7344,0.571010677231,-0.0470947287977
0.7346,0.608608088078,-0.0470947287977
0.7348,0.681453071593,-0.0470947287977
0.735,0.681453071593,-0.0470947287977
0.7352,0.681453071593,-0.0470947287977
0.7354,0.681453071593,-0.0470947287977
0.7356,0.646205498924,-0.0470947287977
0.7358,0.608608088078,-0.0470947287977
0.736,0.608608088078,-0.0470947287977
0.7362,0.608608088078,-0.0470947287977
0.7364,0.608608088078,-0.0470947287977
0.7366,0.646205498924,-0.0470947287977
0.7368,0.646205498924,-0.0470947287977
0.737,0.681453071593,-0.0470947287977
0.7372,0.646205498924,-0.0470947287977
0.7374,0.571010677231,-0.0470947287977
0.7376,0.571010677231,-0.0470947287977
0.7378,0.533413266385,-0.0470947287977
0.738,0.533413266385,-0.0470947287977
0.7382,0.533413266385,-0.0470947287977
0.7384,0.571010677231,-0.0470947287977
0.7386,0.608608088078,-0.0470947287977
0.7388,0.608608088078,-0.0470947287977
0.739,0.571010677231,-0.0470947287977
0.7392,0.571010677231,-0.0470947287977
0.7394,0.533413266385,-0.0470947287977
0.7396,0.533413266385,-0.0470947287977
0.7398,0.495815855538,-0.0470947287977
0.74,0.458218444692,-0.0470947287977
0.7402,0.495815855538,-0.0470947287977
0.7404,0.495815855538,-0.0470947287977
0.7406,0.495815855538,-0.0470947287977
0.7408,0.495815855538,-0.0470947287977
0.741,0.420621033845,-0.0470947287977
0.7412,0.420621033845,-0.0470947287977
0.7414,0.307828801306,-0.0470947287977
0.7416,0.232633979613,-0.0470947287977
0.7418,0.232633979613,-0.0470947287977
0.742,0.270231390459,-0.0470947287977
0.7422,0.270231390459,-0.0470947287977
0.7424,0.232633979613,-0.0470947287977
0.7426,0.195036568766,-0.0470947287977
0.7428,0.15743915792,-0.0470947287977
0.743,0.122191585251,-0.0470947287977
0.7432,0.0845941744046,-0.0470947287977
0.7434,0.0845941744046,-0.0470947287977
0.7436,0.0469967635581,-0.0470947287977
0.7438,0.00939935271163,-0.0470947287977
0.744,0.0469967635581,-0.0470947287977
0.7442,0.0469967635581,-0.0470947287977
0.7444,0.0469967635581,-0.0470947287977
0.7446,0.00939935271163,-0.0470947287977
0.7448,-0.0281980581349,-0.0470947287977
0.745,-0.103392879828,-0.0470947287977
0.7452,-0.140990290674,-0.0470947287977
0.7454,-0.103392879828,-0.0470947287977
0.7456,-0.178587701521,-0.0470947287977
0.7458,-0.178587701521,-0.0470947287977
0.746,-0.178587701521,-0.0470947287977
0.7462,-0.178587701521,-0.0470947287977
0.7464,-0.216185112367,-0.0470947287977
0.7466,-0.253782523214,-0.0470947287977
0.7468,-0.29137993406,-0.0470947287977
0.747,-0.364224917575,-0.0470947287977
0.7472,-0.401822328422,-0.0470947287977
0.7474,-0.401822328422,-0.0470947287977
0.7476,-0.401822328422,-0.0470947287977
0.7478,-0.401822328422,-0.0470947287977
0.748,-0.364224917575,-0.0470947287977
0.7482,-0.364224917575,-0.0470947287977
0.7484,-0.401822328422,-0.0470947287977
0.7486,-0.477017150115,-0.0470947287977
0.7488,-0.439419739268,-0.0470947287977
0.749,-0.514614560961,-0.0470947287977
0.7492,-0.514614560961,-0.0470947287977
0.7494,-0.514614560961,-0.0470947287977
0.7496,-0.439419739268,-0.0470947287977
0.7498,-0.439419739268,-0.0470947287977
0.75,-0.439419739268,-0.0470947287977
0.7502,-0.477017150115,-0.0470947287977
0.7504,-0.477017150115,-0.0470947287977
0.7506,-0.514614560961,-0.0470947287977
0.7508,-0.552211971808,-0.0470947287977
0.751,-0.627406793501,-0.0470947287977
0.7512,-0.589809382654,-0.0470947287977
0.7514,-0.552211971808,-0.0470947287977
0.7516,-0.514614560961,-0.0470947287977
0.7518,-0.514614560961,-0.0470947287977
0.752,-0.514614560961,-0.0470947287977
0.7522,-0.589809382654,-0.0470947287977
0.7524,-0.552211971808,-0.0470947287977
0.7526,-0.589809382654,-0.0470947287977
0.7528,-0.589809382654,-0.0470947287977
0.753,-0.589809382654,-0.0470947287977
0.7532,-0.552211971808,-0.0470947287977
0.7534,-0.514614560961,-0.0470947287977
0.7536,-0.477017150115,-0.0470947287977
0.7538,-0.477017150115,-0.0470947287977
0.754,-0.439419739268,-0.0470947287977
0.7542,-0.477017150115,-0.0470947287977
0.7544,-0.477017150115,-0.0470947287977
0.7546,-0.477017150115,-0.0470947287977
0.7548,-0.477017150115,-0.0470947287977
0.755,-0.477017150115,-0.0470947287977
0.7552,-0.401822328422,-0.0470947287977
0.7554,-0.364224917575,-0.0470947287977
0.7556,-0.328977344907,-0.0470947287977
0.7558,-0.328977344907,-0.0470947287977
0.756,-0.328977344907,-0.0470947287977
0.7562,-0.328977344907,-0.0470947287977
0.7564,-0.328977344907,-0.0470947287977
0.7566,-0.328977344907,-0.0470947287977
0.7568,-0.328977344907,-0.0470947287977
0.757,-0.253782523214,-0.0470947287977
0.7572,-0.216185112367,-0.0470947287977
0.7574,-0.178587701521,-0.0470947287977
0.7576,-0.178587701521,-0.0470947287977
0.7578,-0.178587701521,-0.0470947287977
0.758,-0.216185112367,-0.0470947287977
0.7582,-0.178587701521,-0.0470947287977
0.7584,-0.178587701521,-0.0470947287977
0.7586,-0.140990290674,-0.0470947287977
0.7588,-0.103392879828,-0.0470947287977
0.759,-0.0657954689814,-0.0470947287977
0.7592,-0.0281980581349,-0.0470947287977
0.7594,0.00939935271163,-0.0470947287977
0.7596,0.00939935271163,-0.0470947287977
0.7598,0.00939935271163,-0.0470947287977
0.76,0.00939935271163,-0.0470947287977
0.7602,0.00939935271163,-0.0470947287977
0.7604,0.00939935271163,-0.0470947287977
0.7606,0.0845941744046,-0.0470947287977
0.7608,0.15743915792,-0.0470947287977
0.761,0.195036568766,-0.0470947287977
0.7612,0.232633979613,-0.0470947287977
0.7614,0.232633979613,-0.0470947287977
0.7616,0.232633979613,-0.0470947287977
0.7618,0.232633979613,-0.0470947287977
0.762,0.232633979613,-0.0470947287977
0.7622,0.232633979613,-0.0470947287977
0.7624,0.270231390459,-0.0470947287977
0.7626,0.270231390459,-0.0470947287977
0.7628,0.345426212152,-0.0470947287977
0.763,0.383023622999,-0.0470947287977
0.7632,0.383023622999,-0.0470947287977
0.7634,0.383023622999,-0.0470947287977
0.7636,0.383023622999,-0.0470947287977
0.7638,0.345426212152,-0.0470947287977
0.764,0.345426212152,-0.0470947287977
0.7642,0.345426212152,-0.0470947287977
0.7644,0.420621033845,-0.0470947287977
0.7646,0.420621033845,-0.0470947287977
0.7648,0.495815855538,-0.0470947287977
0.765,0.495815855538,-0.0470947287977
0.7652,0.495815855538,-0.0470947287977
0.7654,0.495815855538,-0.0470947287977
0.7656,0.495815855538,-0.0470947287977
0.7658,0.420621033845,-0.0470947287977
0.766,0.458218444692,-0.0470947287977
0.7662,0.495815855538,-0.0470947287977
0.7664,0.495815855538,-0.0470947287977
0.7666,0.533413266385,-0.0470947287977
0.7668,0.533413266385,-0.0470947287977
0.767,0.533413266385,-0.0470947287977
0.7672,0.495815855538,-0.0470947287977
0.7674,0.458218444692,-0.0470947287977
0.7676,0.420621033845,-0.0470947287977
0.7678,0.420621033845,-0.0470947287977
0.768,0.420621033845,-0.0470947287977
0.7682,0.420621033845,-0.0470947287977
0.7684,0.458218444692,-0.0470947287977
0.7686,0.495815855538,-0.0470947287977
0.7688,0.458218444692,-0.0470947287977
0.769,0.420621033845,-0.0470947287977
0.7692,0.383023622999,-0.0470947287977
0.7694,0.345426212152,-0.0470947287977
0.7696,0.307828801306,-0.0470947287977
0.7698,0.345426212152,-0.0470947287977
0.77,0.345426212152,-0.0470947287977
0.7702,0.345426212152,-0.0470947287977
0.7704,0.383023622999,-0.0470947287977
0.7706,0.383023622999,-0.0470947287977
0.7708,0.345426212152,-0.0470947287977
0.771,0.307828801306,-0.0470947287977
0.7712,0.270231390459,-0.0470947287977
0.7714,0.270231390459,-0.0470947287977
0.7716,0.232633979613,-0.0470947287977
0.7718,0.232633979613,-0.0470947287977
0.772,0.232633979613,-0.0470947287977
0.7722,0.232633979613,-0.0470947287977
0.7724,0.232633979613,-0.0470947287977
0.7726,0.232633979613,-0.0470947287977
0.7728,0.195036568766,-0.0470947287977
0.773,0.122191585251,-0.0470947287977
0.7732,0.0845941744046,-0.0470947287977
0.7734,0.0469967635581,-0.0470947287977
0.7736,0.0469967635581,-0.0470947287977
0.7738,0.0469967635581,-0.0470947287977
0.774,0.0469967635581,-0.0470947287977
0.7742,0.0845941744046,-0.0470947287977
0.7744,0.00939935271163,-0.0470947287977
0.7746,0.00939935271163,-0.0470947287977
0.7748,-0.0281980581349,-0.0470947287977
0.775,-0.0657954689814,-0.0470947287977
0.7752,-0.103392879828,-0.0470947287977
0.7754,-0.140990290674,-0.0470947287977
0.7756,-0.103392879828,-0.0470947287977
0.7758,-0.103392879828,-0.0470947287977
0.776,-0.103392879828,-0.0470947287977
0.7762,-0.0657954689814,-0.0470947287977
0.7764,-0.103392879828,-0.0470947287977
0.7766,-0.178587701521,-0.0470947287977
0.7768,-0.178587701521,-0.0470947287977
0.777,-0.253782523214,-0.0470947287977
0.7772,-0.29137993406,-0.0470947287977
0.7774,-0.253782523214,-0.0470947287977
0.7776,-0.29137993406,-0.0470947287977
0.7778,-0.253782523214,-0.0470947287977
0.778,-0.216185112367,-0.0470947287977
0.7782,-0.253782523214,-0.0470947287977
0.7784,-0.253782523214,-0.0470947287977
0.7786,-0.328977344907,-0.0470947287977
0.7788,-0.328977344907,-0.0470947287977
0.779,-0.364224917575,-0.0470947287977
0.7792,-0.364224917575,-0.0470947287977
0.7794,-0.328977344907,-0.0470947287977
0.7796,-0.328977344907,-0.0470947287977
0.7798,-0.328977344907,-0.0470947287977
0.78,-0.328977344907,-0.0470947287977
0.7802,-0.328977344907,-0.0470947287977
0.7804,-0.328977344907,-0.0470947287977
0.7806,-0.364224917575,-0.0470947287977
0.7808,-0.401822328422,-0.0470947287977
0.781,-0.401822328422,-0.0470947287977
0.7812,-0.401822328422,-0.0470947287977
0.7814,-0.364224917575,-0.0470947287977
0.7816,-0.364224917575,-0.0470947287977
0.7818,-0.328977344907,-0.0470947287977
0.782,-0.364224917575,-0.0470947287977
0.7822,-0.364224917575,-0.0470947287977
0.7824,-0.401822328422,-0.0470947287977
0.7826,-0.401822328422,-0.0470947287977
0.7828,-0.401822328422,-0.0470947287977
0.783,-0.401822328422,-0.0470947287977
0.7832,-0.364224917575,-0.0470947287977
0.7834,-0.328977344907,-0.0470947287977
0.7836,-0.328977344907,-0.0470947287977
0.7838,-0.328977344907,-0.0470947287977
0.784,-0.328977344907,-0.0470947287977
0.7842,-0.328977344907,-0.0470947287977
0.7844,-0.328977344907,-0.0470947287977
0.7846,-0.328977344907,-0.0470947287977
0.7848,-0.328977344907,-0.0470947287977
0.785,-0.29137993406,-0.0470947287977
0.7852,-0.253782523214,-0.0470947287977
0.7854,-0.216185112367,-0.0470947287977
0.7856,-0.216185112367,-0.0470947287977
0.7858,-0.216185112367,-0.0470947287977
0.786,-0.216185112367,-0.0470947287977
0.7862,-0.216185112367,-0.0470947287977
0.7864,-0.253782523214,-0.0470947287977
0.7866,-0.253782523214,-0.0470947287977
0.7868,-0.178587701521,-0.0470947287977
0.787,-0.178587701521,-0.0470947287977
0.7872,-0.178587701521,-0.0470947287977
0.7874,-0.103392879828,-0.0470947287977
0.7876,-0.103392879828,-0.0470947287977
0.7878,-0.103392879828,-0.0470947287977
0.788,-0.103392879828,-0.0470947287977
0.7882,-0.140990290674,-0.0470947287977
0.7884,-0.140990290674,-0.0470947287977
0.7886,-0.0657954689814,-0.0470947287977
0.7888,-0.0281980581349,-0.0470947287977
0.789,-0.0281980581349,-0.0470947287977
0.7892,0.00939935271163,-0.0470947287977
0.7894,0.0845941744046,-0.0470947287977
0.7896,0.0469967635581,-0.0470947287977
0.7898,0.00939935271163,-0.0470947287977
0.79,0.0469967635581,-0.0470947287977
0.7902,0.0469967635581,-0.0470947287977
0.7904,0.0845941744046,-0.0470947287977
0.7906,0.0845941744046,-0.0470947287977
0.7908,0.122191585251,-0.0470947287977
0.791,0.195036568766,-0.0470947287977
0.7912,0.195036568766,-0.0470947287977
0.7914,0.195036568766,-0.0470947287977
0.7916,0.195036568766,-0.0470947287977
0.7918,0.122191585251,-0.0470947287977
0.792,0.122191585251,-0.0470947287977
0.7922,0.15743915792,-0.0470947287977
0.7924,0.195036568766,-0.0470947287977
0.7926,0.195036568766,-0.0470947287977
0.7928,0.232633979613,-0.0470947287977
0.793,0.232633979613,-0.0470947287977
0.7932,0.270231390459,-0.0470947287977
0.7934,0.232633979613,-0.0470947287977
0.7936,0.232633979613,-0.0470947287977
0.7938,0.232633979613,-0.0470947287977
0.794,0.232633979613,-0.0470947287977
0.7942,0.270231390459,-0.0470947287977
0.7944,0.307828801306,-0.0470947287977
0.7946,0.307828801306,-0.0470947287977
0.7948,0.345426212152,-0.0470947287977
0.795,0.345426212152,-0.0470947287977
0.7952,0.307828801306,-0.0470947287977
0.7954,0.270231390459,-0.0470947287977
0.7956,0.270231390459,-0.0470947287977
0.7958,0.270231390459,-0.0470947287977
0.796,0.307828801306,-0.0470947287977
0.7962,0.345426212152,-0.0470947287977
0.7964,0.345426212152,-0.0470947287977
0.7966,0.383023622999,-0.0470947287977
0.7968,0.345426212152,-0.0470947287977
0.797,0.383023622999,-0.0470947287977
0.7972,0.307828801306,-0.0470947287977
0.7974,0.270231390459,-0.0470947287977
0.7976,0.270231390459,-0.0470947287977
0.7978,0.270231390459,-0.0470947287977
0.798,0.307828801306,-0.0470947287977
0.7982,0.307828801306,-0.0470947287977
0.7984,0.345426212152,-0.0470947287977
0.7986,0.307828801306,-0.0470947287977
0.7988,0.307828801306,-0.0470947287977
0.799,0.270231390459,-0.0470947287977
0.7992,0.270231390459,-0.0470947287977
0.7994,0.232633979613,-0.0470947287977
0.7996,0.232633979613,-0.0470947287977
0.7998,0.232633979613,-0.0470947287977
0.8,0.232633979613,-0.0470947287977
0.8002,0.232633979613,-0.0470947287977
0.8004,0.232633979613,-0.0470947287977
0.8006,0.232633979613,-0.0470947287977
0.8008,0.232633979613,-0.0470947287977
0.801,0.15743915792,-0.0470947287977
0.8012,0.122191585251,-0.0470947287977
0.8014,0.122191585251,-0.0470947287977
0.8016,0.122191585251,-0.0470947287977
0.8018,0.122191585251,-0.0470947287977
0.802,0.15743915792,-0.0470947287977
0.8022,0.195036568766,-0.0470947287977
0.8024,0.15743915792,-0.0470947287977
0.8026,0.122191585251,-0.0470947287977
0.8028,0.0845941744046,-0.0470947287977
0.803,0.0845941744046,-0.0470947287977
0.8032,0.0469967635581,-0.0470947287977
0.8034,0.00939935271163,-0.0470947287977
0.8036,0.00939935271163,-0.0470947287977
0.8038,0.00939935271163,-0.0470947287977
0.804,0.0469967635581,-0.0470947287977
0.8042,0.00939935271163,-0.0470947287977
0.8044,0.00939935271163,-0.0470947287977
0.8046,-0.0281980581349,-0.0470947287977
0.8048,-0.0657954689814,-0.0470947287977
0.805,-0.103392879828,-0.0470947287977
0.8052,-0.103392879828,-0.0470947287977
0.8054,-0.103392879828,-0.0470947287977
0.8056,-0.0657954689814,-0.0470947287977
0.8058,-0.103392879828,-0.0470947287977
0.806,-0.103392879828,-0.0470947287977
0.8062,-0.0657954689814,-0.0470947287977
0.8064,-0.103392879828,-0.0470947287977
0.8066,-0.140990290674,-0.0470947287977
0.8068,-0.178587701521,-0.0470947287977
0.807,-0.178587701521,-0.0470947287977
0.8072,-0.178587701521,-0.0470947287977
0.8074,-0.178587701521,-0.0470947287977
0.8076,-0.178587701521,-0.0470947287977
0.8078,-0.178587701521,-0.0470947287977
0.808,-0.178587701521,-0.0470947287977
0.8082,-0.216185112367,-0.0470947287977
0.8084,-0.253782523214,-0.0470947287977
0.8086,-0.253782523214,-0.0470947287977
0.8088,-0.29137993406,-0.0470947287977
0.809,-0.29137993406,-0.0470947287977
0.8092,-0.253782523214,-0.0470947287977
0.8094,-0.253782523214,-0.0470947287977
0.8096,-0.216185112367,-0.0470947287977
0.8098,-0.216185112367,-0.0470947287977
0.81,-0.253782523214,-0.0470947287977
0.8102,-0.29137993406,-0.0470947287977
0.8104,-0.29137993406,-0.0470947287977
0.8106,-0.328977344907,-0.0470947287977
0.8108,-0.29137993406,-0.0470947287977
0.811,-0.29137993406,-0.0470947287977
0.8112,-0.216185112367,-0.0470947287977
0.8114,-0.216185112367,-0.0470947287977
0.8116,-0.178587701521,-0.0470947287977
0.8118,-0.216185112367,-0.0470947287977
0.812,-0.216185112367,-0.0470947287977
0.8122,-0.29137993406,-0.0470947287977
0.8124,-0.29137993406,-0.0470947287977
0.8126,-0.29137993406,-0.0470947287977
0.8128,-0.29137993406,-0.0470947287977
0.813,-0.253782523214,-0.0470947287977
0.8132,-0.216185112367,-0.0470947287977
0.8134,-0.178587701521,-0.0470947287977
0.8136,-0.178587701521,-0.0470947287977
0.8138,-0.216185112367,-0.0470947287977
0.814,-0.216185112367,-0.0470947287977
0.8142,-0.253782523214,-0.0470947287977
0.8144,-0.253782523214,-0.0470947287977
0.8146,-0.253782523214,-0.0470947287977
0.8148,-0.216185112367,-0.0470947287977
0.815,-0.178587701521,-0.0470947287977
0.8152,-0.140990290674,-0.0470947287977
0.8154,-0.103392879828,-0.0470947287977
0.8156,-0.140990290674,-0.0470947287977
0.8158,-0.140990290674,-0.0470947287977
0.816,-0.140990290674,-0.0470947287977
0.8162,-0.140990290674,-0.0470947287977
0.8164,-0.140990290674,-0.0470947287977
0.8166,-0.103392879828,-0.0470947287977
0.8168,-0.0657954689814,-0.0470947287977
0.817,-0.0281980581349,-0.0470947287977
0.8172,-0.0281980581349,-0.0470947287977
0.8174,-0.0281980581349,-0.0470947287977
0.8176,-0.0281980581349,-0.0470947287977
0.8178,-0.0281980581349,-0.0470947287977
0.818,-0.0281980581349,-0.0470947287977
0.8182,-0.0281980581349,-0.0470947287977
0.8184,-0.0281980581349,-0.0470947287977
0.8186,-0.0281980581349,-0.0470947287977
0.8188,0.0469967635581,-0.0470947287977
0.819,0.0469967635581,-0.0470947287977
0.8192,0.0469967635581,-0.0470947287977
0.8194,0.0469967635581,-0.0470947287977
0.8196,0.0469967635581,-0.0470947287977
0.8198,0.00939935271163,-0.0470947287977
0.82,0.00939935271163,-0.0470947287977
0.8202,0.0469967635581,-0.0470947287977
0.8204,0.0845941744046,-0.0470947287977
0.8206,0.122191585251,-0.0470947287977
0.8208,0.15743915792,-0.0470947287977
0.821,0.15743915792,-0.0470947287977
0.8212,0.15743915792,-0.0470947287977
0.8214,0.122191585251,-0.0470947287977
0.8216,0.122191585251,-0.0470947287977
0.8218,0.122191585251,-0.0470947287977
0.822,0.122191585251,-0.0470947287977
0.8222,0.15743915792,-0.0470947287977
0.8224,0.195036568766,-0.0470947287977
0.8226,0.232633979613,-0.0470947287977
0.8228,0.232633979613,-0.0470947287977
0.823,0.232633979613,-0.0470947287977
0.8232,0.232633979613,-0.0470947287977
0.8234,0.195036568766,-0.0470947287977
0.8236,0.195036568766,-0.0470947287977
0.8238,0.195036568766,-0.0470947287977
0.824,0.195036568766,-0.0470947287977
0.8242,0.232633979613,-0.0470947287977
0.8244,0.232633979613,-0.0470947287977
0.8246,0.270231390459,-0.0470947287977
0.8248,0.232633979613,-0.0470947287977
0.825,0.232633979613,-0.0470947287977
0.8252,0.195036568766,-0.0470947287977
0.8254,0.195036568766,-0.0470947287977
0.8256,0.195036568766,-0.0470947287977
0.8258,0.195036568766,-0.0470947287977
0.826,0.195036568766,-0.0470947287977
0.8262,0.232633979613,-0.0470947287977
0.8264,0.270231390459,-0.0470947287977
0.8266,0.232633979613,-0.0470947287977
0.8268,0.232633979613,-0.0470947287977
0.827,0.195036568766,-0.0470947287977
0.8272,0.15743915792,-0.0470947287977
0.8274,0.195036568766,-0.0470947287977
0.8276,0.15743915792,-0.0470947287977
0.8278,0.195036568766,-0.0470947287977
0.828,0.195036568766,-0.0470947287977
0.8282,0.232633979613,-0.0470947287977
0.8284,0.232633979613,-0.0470947287977
0.8286,0.195036568766,-0.0470947287977
0.8288,0.195036568766,-0.0470947287977
0.829,0.122191585251,-0.0470947287977
0.8292,0.122191585251,-0.0470947287977
0.8294,0.122191585251,-0.0470947287977
0.8296,0.122191585251,-0.0470947287977
0.8298,0.122191585251,-0.0470947287977
0.83,0.122191585251,-0.0470947287977
0.8302,0.15743915792,-0.0470947287977
0.8304,0.122191585251,-0.0470947287977
0.8306,0.0845941744046,-0.0470947287977
0.8308,0.0845941744046,-0.0470947287977
0.831,0.0845941744046,-0.0470947287977
0.8312,0.0469967635581,-0.0470947287977
0.8314,0.00939935271163,-0.0470947287977
0.8316,0.0469967635581,-0.0470947287977
0.8318,0.0469967635581,-0.0470947287977
0.832,0.0845941744046,-0.0470947287977
0.8322,0.0469967635581,-0.0470947287977
0.8324,0.0469967635581,-0.0470947287977
0.8326,0.00939935271163,-0.0470947287977
0.8328,-0.0281980581349,-0.0470947287977
0.833,-0.0281980581349,-0.0470947287977
0.8332,-0.0657954689814,-0.0470947287977
0.8334,-0.0281980581349,-0.0470947287977
0.8336,-0.0281980581349,-0.0470947287977
0.8338,-0.0281980581349,-0.0470947287977
0.834,-0.0281980581349,-0.0470947287977
0.8342,-0.0281980581349,-0.0470947287977
0.8344,-0.0281980581349,-0.0470947287977
0.8346,-0.0657954689814,-0.0470947287977
0.8348,-0.140990290674,-0.0470947287977
0.835,-0.103392879828,-0.0470947287977
0.8352,-0.103392879828,-0.0470947287977
0.8354,-0.103392879828,-0.0470947287977
0.8356,-0.0657954689814,-0.0470947287977
0.8358,-0.0657954689814,-0.0470947287977
0.836,-0.0657954689814,-0.0470947287977
0.8362,-0.103392879828,-0.0470947287977
0.8364,-0.140990290674,-0.0470947287977
0.8366,-0.178587701521,-0.0470947287977
0.8368,-0.178587701521,-0.0470947287977
0.837,-0.178587701521,-0.0470947287977
0.8372,-0.178587701521,-0.0470947287977
0.8374,-0.140990290674,-0.0470947287977
0.8376,-0.140990290674,-0.0470947287977
0.8378,-0.140990290674,-0.0470947287977
0.838,-0.178587701521,-0.0470947287977
0.8382,-0.178587701521,-0.0470947287977
0.8384,-0.216185112367,-0.0470947287977
0.8386,-0.216185112367,-0.0470947287977
0.8388,-0.216185112367,-0.0470947287977
0.839,-0.216185112367,-0.0470947287977
0.8392,-0.178587701521,-0.0470947287977
0.8394,-0.140990290674,-0.0470947287977
0.8396,-0.140990290674,-0.0470947287977
0.8398,-0.140990290674,-0.0470947287977
0.84,-0.178587701521,-0.0470947287977
0.8402,-0.178587701521,-0.0470947287977
0.8404,-0.216185112367,-0.0470947287977
0.8406,-0.178587701521,-0.0470947287977
0.8408,-0.178587701521,-0.0470947287977
0.841,-0.178587701521,-0.0470947287977
0.8412,-0.103392879828,-0.0470947287977
0.8414,-0.103392879828,-0.0470947287977
0.8416,-0.103392879828,-0.0470947287977
0.8418,-0.103392879828,-0.0470947287977
0.842,-0.140990290674,-0.0470947287977
0.8422,-0.178587701521,-0.0470947287977
0.8424,-0.178587701521,-0.0470947287977
0.8426,-0.178587701521,-0.0470947287977
0.8428,-0.140990290674,-0.0470947287977
0.843,-0.103392879828,-0.0470947287977
0.8432,-0.103392879828,-0.0470947287977
0.8434,-0.0657954689814,-0.0470947287977
0.8436,-0.0657954689814,-0.0470947287977
0.8438,-0.0657954689814,-0.0470947287977
0.844,-0.103392879828,-0.0470947287977
0.8442,-0.140990290674,-0.0470947287977
0.8444,-0.103392879828,-0.0470947287977
0.8446,-0.103392879828,-0.0470947287977
0.8448,-0.0281980581349,-0.0470947287977
0.845,-0.0281980581349,-0.0470947287977
0.8452,0.00939935271163,-0.0470947287977
0.8454,0.00939935271163,-0.0470947287977
0.8456,-0.0281980581349,-0.0470947287977
0.8458,-0.0281980581349,-0.0470947287977
0.846,-0.0281980581349,-0.0470947287977
0.8462,-0.0281980581349,-0.0470947287977
0.8464,0.00939935271163,-0.0470947287977
0.8466,0.00939935271163,-0.0470947287977
0.8468,0.0469967635581,-0.0470947287977
0.847,0.0845941744046,-0.0470947287977
0.8472,0.0845941744046,-0.0470947287977
0.8474,0.0469967635581,-0.0470947287977
0.8476,0.0469967635581,-0.0470947287977
0.8478,0.00939935271163,-0.0470947287977
0.848,0.00939935271163,-0.0470947287977
0.8482,0.00939935271163,-0.0470947287977
0.8484,0.0845941744046,-0.0470947287977
0.8486,0.0845941744046,-0.0470947287977
0.8488,0.0845941744046,-0.0470947287977
0.849,0.122191585251,-0.0470947287977
0.8492,0.0845941744046,-0.0470947287977
0.8494,0.0845941744046,-0.0470947287977
0.8496,0.0845941744046,-0.0470947287977
0.8498,0.0845941744046,-0.0470947287977
0.85,0.0845941744046,-0.0470947287977
0.8502,0.0845941744046,-0.0470947287977
0.8504,0.0845941744046,-0.0470947287977
0.8506,0.122191585251,-0.0470947287977
0.8508,0.15743915792,-0.0470947287977
0.851,0.15743915792,-0.0470947287977
0.8512,0.122191585251,-0.0470947287977
0.8514,0.122191585251,-0.0470947287977
0.8516,0.122191585251,-0.0470947287977
0.8518,0.122191585251,-0.0470947287977
0.852,0.122191585251,-0.0470947287977
0.8522,0.15743915792,-0.0470947287977
0.8524,0.195036568766,-0.0470947287977
0.8526,0.195036568766,-0.0470947287977
0.8528,0.232633979613,-0.0470947287977
0.853,0.195036568766,-0.0470947287977
0.8532,0.195036568766,-0.0470947287977
0.8534,0.122191585251,-0.0470947287977
0.8536,0.122191585251,-0.0470947287977
0.8538,0.15743915792,-0.0470947287977
0.854,0.15743915792,-0.0470947287977
0.8542,0.15743915792,-0.0470947287977
0.8544,0.195036568766,-0.0470947287977
0.8546,0.195036568766,-0.0470947287977
0.8548,0.195036568766,-0.0470947287977
0.855,0.122191585251,-0.0470947287977
0.8552,0.0845941744046,-0.0470947287977
0.8554,0.122191585251,-0.0470947287977
0.8556,0.122191585251,-0.0470947287977
0.8558,0.122191585251,-0.0470947287977
0.856,0.122191585251,-0.0470947287977
0.8562,0.122191585251,-0.0470947287977
0.8564,0.122191585251,-0.0470947287977
0.8566,0.122191585251,-0.0470947287977
0.8568,0.122191585251,-0.0470947287977
0.857,0.122191585251,-0.0470947287977
0.8572,0.0845941744046,-0.0470947287977
0.8574,0.0845941744046,-0.0470947287977
0.8576,0.0845941744046,-0.0470947287977
0.8578,0.0845941744046,-0.0470947287977
0.858,0.122191585251,-0.0470947287977
0.8582,0.122191585251,-0.0470947287977
0.8584,0.0845941744046,-0.0470947287977
0.8586,0.0845941744046,-0.0470947287977
0.8588,0.0845941744046,-0.0470947287977
0.859,0.0469967635581,-0.0470947287977
0.8592,0.00939935271163,-0.0470947287977
0.8594,0.00939935271163,-0.0470947287977
0.8596,0.0469967635581,-0.0470947287977
0.8598,0.0469967635581,-0.0470947287977
0.86,0.0469967635581,-0.0470947287977
0.8602,0.0845941744046,-0.0470947287977
0.8604,0.00939935271163,-0.0470947287977
0.8606,-0.0281980581349,-0.0470947287977
0.8608,-0.0281980581349,-0.0470947287977
0.861,-0.0281980581349,-0.0470947287977
0.8612,-0.0657954689814,-0.0470947287977
0.8614,-0.0657954689814,-0.0470947287977
0.8616,-0.0281980581349,-0.0470947287977
0.8618,-0.0281980581349,-0.0470947287977
0.862,-0.0281980581349,-0.0470947287977
0.8622,-0.0657954689814,-0.0470947287977
0.8624,-0.0657954689814,-0.0470947287977
0.8626,-0.0657954689814,-0.0470947287977
0.8628,-0.103392879828,-0.0470947287977
0.863,-0.103392879828,-0.0470947287977
0.8632,-0.103392879828,-0.0470947287977
0.8634,-0.103392879828,-0.0470947287977
0.8636,-0.103392879828,-0.0470947287977
0.8638,-0.0657954689814,-0.0470947287977
0.864,-0.103392879828,-0.0470947287977
0.8642,-0.103392879828,-0.0470947287977
0.8644,-0.178587701521,-0.0470947287977
0.8646,-0.178587701521,-0.0470947287977
0.8648,-0.178587701521,-0.0470947287977
0.865,-0.178587701521,-0.0470947287977
0.8652,-0.140990290674,-0.0470947287977
0.8654,-0.140990290674,-0.0470947287977
0.8656,-0.178587701521,-0.0470947287977
0.8658,-0.178587701521,-0.0470947287977
0.866,-0.140990290674,-0.0470947287977
0.8662,-0.178587701521,-0.0470947287977
0.8664,-0.178587701521,-0.0470947287977
0.8666,-0.178587701521,-0.0470947287977
0.8668,-0.178587701521,-0.0470947287977
0.867,-0.178587701521,-0.0470947287977
0.8672,-0.178587701521,-0.0470947287977
0.8674,-0.140990290674,-0.0470947287977
0.8676,-0.178587701521,-0.0470947287977
0.8678,-0.140990290674,-0.0470947287977
0.868,-0.178587701521,-0.0470947287977
0.8682,-0.178587701521,-0.0470947287977
0.8684,-0.178587701521,-0.0470947287977
0.8686,-0.178587701521,-0.0470947287977
0.8688,-0.178587701521,-0.0470947287977
0.869,-0.178587701521,-0.0470947287977
0.8692,-0.140990290674,-0.0470947287977
0.8694,-0.103392879828,-0.0470947287977
0.8696,-0.103392879828,-0.0470947287977
0.8698,-0.140990290674,-0.0470947287977
0.87,-0.178587701521,-0.0470947287977
0.8702,-0.178587701521,-0.0470947287977
0.8704,-0.178587701521,-0.0470947287977
0.8706,-0.178587701521,-0.0470947287977
0.8708,-0.103392879828,-0.0470947287977
0.871,-0.103392879828,-0.0470947287977
0.8712,-0.0657954689814,-0.0470947287977
0.8714,-0.0281980581349,-0.0470947287977
0.8716,-0.0657954689814,-0.0470947287977
0.8718,-0.103392879828,-0.0470947287977
0.872,-0.103392879828,-0.0470947287977
0.8722,-0.103392879828,-0.0470947287977
0.8724,-0.0657954689814,-0.0470947287977
0.8726,-0.0657954689814,-0.0470947287977
0.8728,-0.0281980581349,-0.0470947287977
0.873,-0.0281980581349,-0.0470947287977
0.8732,-0.0281980581349,-0.0470947287977
0.8734,-0.0281980581349,-0.0470947287977
0.8736,-0.0281980581349,-0.0470947287977
0.8738,-0.0281980581349,-0.0470947287977
0.874,-0.0281980581349,-0.0470947287977
0.8742,-0.0281980581349,-0.0470947287977
0.8744,-0.0281980581349,-0.0470947287977
0.8746,0.00939935271163,-0.0470947287977
0.8748,0.0469967635581,-0.0470947287977
0.875,0.0469967635581,-0.0470947287977
0.8752,0.0845941744046,-0.0470947287977
0.8754,0.0469967635581,-0.0470947287977
0.8756,0.0469967635581,-0.0470947287977
0.8758,0.0469967635581,-0.0470947287977
0.876,0.0469967635581,-0.0470947287977
0.8762,0.0845941744046,-0.0470947287977
0.8764,0.0845941744046,-0.0470947287977
0.8766,0.122191585251,-0.0470947287977
0.8768,0.122191585251,-0.0470947287977
0.877,0.15743915792,-0.0470947287977
0.8772,0.122191585251,-0.0470947287977
0.8774,0.0845941744046,-0.0470947287977
0.8776,0.122191585251,-0.0470947287977
0.8778,0.122191585251,-0.0470947287977
0.878,0.122191585251,-0.0470947287977
0.8782,0.122191585251,-0.0470947287977
0.8784,0.15743915792,-0.0470947287977
0.8786,0.195036568766,-0.0470947287977
0.8788,0.15743915792,-0.0470947287977
0.879,0.195036568766,-0.0470947287977
0.8792,0.15743915792,-0.0470947287977
0.8794,0.15743915792,-0.0470947287977
0.8796,0.122191585251,-0.0470947287977
0.8798,0.122191585251,-0.0470947287977
0.88,0.122191585251,-0.0470947287977
0.8802,0.195036568766,-0.0470947287977
0.8804,0.195036568766,-0.0470947287977
0.8806,0.232633979613,-0.0470947287977
0.8808,0.232633979613,-0.0470947287977
0.881,0.195036568766,-0.0470947287977
0.8812,0.195036568766,-0.0470947287977
0.8814,0.195036568766,-0.0470947287977
0.8816,0.195036568766,-0.0470947287977
0.8818,0.15743915792,-0.0470947287977
0.882,0.195036568766,-0.0470947287977
0.8822,0.195036568766,-0.0470947287977
0.8824,0.195036568766,-0.0470947287977
0.8826,0.232633979613,-0.0470947287977
0.8828,0.195036568766,-0.0470947287977
0.883,0.195036568766,-0.0470947287977
0.8832,0.122191585251,-0.0470947287977
0.8834,0.122191585251,-0.0470947287977
0.8836,0.122191585251,-0.0470947287977
0.8838,0.122191585251,-0.0470947287977
0.884,0.122191585251,-0.0470947287977
0.8842,0.15743915792,-0.0470947287977
0.8844,0.15743915792,-0.0470947287977
0.8846,0.15743915792,-0.0470947287977
0.8848,0.122191585251,-0.0470947287977
0.885,0.122191585251,-0.0470947287977
0.8852,0.0845941744046,-0.0470947287977
0.8854,0.0845941744046,-0.0470947287977
0.8856,0.0845941744046,-0.0470947287977
0.8858,0.0845941744046,-0.0470947287977
0.886,0.0845941744046,-0.0470947287977
0.8862,0.0845941744046,-0.0470947287977
0.8864,0.0845941744046,-0.0470947287977
0.8866,0.0845941744046,-0.0470947287977
0.8868,0.0469967635581,-0.0470947287977
0.887,0.00939935271163,-0.0470947287977
0.8872,0.00939935271163,-0.0470947287977
0.8874,0.00939935271163,-0.0470947287977
0.8876,0.00939935271163,-0.0470947287977
0.8878,0.00939935271163,-0.0470947287977
0.888,0.00939935271163,-0.0470947287977
0.8882,0.00939935271163,-0.0470947287977
0.8884,0.00939935271163,-0.0470947287977
0.8886,-0.0281980581349,-0.0470947287977
0.8888,-0.0281980581349,-0.0470947287977
0.889,-0.0657954689814,-0.0470947287977
0.8892,-0.0657954689814,-0.0470947287977
0.8894,-0.103392879828,-0.0470947287977
0.8896,-0.0281980581349,-0.0470947287977
0.8898,-0.0657954689814,-0.0470947287977
0.89,-0.0281980581349,-0.0470947287977
0.8902,-0.0657954689814,-0.0470947287977
0.8904,-0.0657954689814,-0.0470947287977
0.8906,-0.103392879828,-0.0470947287977
0.8908,-0.140990290674,-0.0470947287977
0.891,-0.140990290674,-0.0470947287977
0.8912,-0.140990290674,-0.0470947287977
0.8914,-0.178587701521,-0.0470947287977
0.8916,-0.140990290674,-0.0470947287977
0.8918,-0.103392879828,-0.0470947287977
0.892,-0.103392879828,-0.0470947287977
0.8922,-0.140990290674,-0.0470947287977
0.8924,-0.178587701521,-0.0470947287977
0.8926,-0.178587701521,-0.0470947287977
0.8928,-0.178587701521,-0.0470947287977
0.893,-0.216185112367,-0.0470947287977
0.8932,-0.178587701521,-0.0470947287977
0.8934,-0.178587701521,-0.0470947287977
0.8936,-0.178587701521,-0.0470947287977
0.8938,-0.178587701521,-0.0470947287977
0.894,-0.178587701521,-0.0470947287977
0.8942,-0.178587701521,-0.0470947287977
0.8944,-0.178587701521,-0.0470947287977
0.8946,-0.216185112367,-0.0470947287977
0.8948,-0.216185112367,-0.0470947287977
0.895,-0.216185112367,-0.0470947287977
0.8952,-0.216185112367,-0.0470947287977
0.8954,-0.178587701521,-0.0470947287977
0.8956,-0.178587701521,-0.0470947287977
0.8958,-0.216185112367,-0.0470947287977
0.896,-0.178587701521,-0.0470947287977
0.8962,-0.216185112367,-0.0470947287977
0.8964,-0.216185112367,-0.0470947287977
0.8966,-0.216185112367,-0.0470947287977
0.8968,-0.216185112367,-0.0470947287977
0.897,-0.216185112367,-0.0470947287977
0.8972,-0.178587701521,-0.0470947287977
0.8974,-0.178587701521,-0.0470947287977
0.8976,-0.178587701521,-0.0470947287977
0.8978,-0.178587701521,-0.0470947287977
0.898,-0.178587701521,-0.0470947287977
0.8982,-0.178587701521,-0.0470947287977
0.8984,-0.216185112367,-0.0470947287977
0.8986,-0.178587701521,-0.0470947287977
0.8988,-0.178587701521,-0.0470947287977
0.899,-0.103392879828,-0.0470947287977
0.8992,-0.103392879828,-0.0470947287977
0.8994,-0.103392879828,-0.0470947287977
0.8996,-0.103392879828,-0.0470947287977
0.8998,-0.103392879828,-0.0470947287977
0.9,-0.140990290674,-0.0470947287977
0.9002,-0.140990290674,-0.0470947287977
0.9004,-0.140990290674,-0.0470947287977
0.9006,-0.103392879828,-0.0470947287977
0.9008,-0.103392879828,-0.0470947287977
0.901,-0.0657954689814,-0.0470947287977
0.9012,-0.0281980581349,-0.0470947287977
0.9014,-0.0281980581349,-0.0470947287977
0.9016,-0.0281980581349,-0.0470947287977
0.9018,-0.0281980581349,-0.0470947287977
0.902,-0.0657954689814,-0.0470947287977
0.9022,-0.0657954689814,-0.0470947287977
0.9024,-0.0281980581349,-0.0470947287977
0.9026,-0.0281980581349,-0.0470947287977
0.9028,0.00939935271163,-0.0470947287977
0.903,0.0469967635581,-0.0470947287977
0.9032,0.00939935271163,-0.0470947287977
0.9034,0.0469967635581,-0.0470947287977
0.9036,0.0469967635581,-0.0470947287977
0.9038,0.0469967635581,-0.0470947287977
0.904,0.0469967635581,-0.0470947287977
0.9042,0.0469967635581,-0.0470947287977
0.9044,0.0845941744046,-0.0470947287977
0.9046,0.122191585251,-0.0470947287977
0.9048,0.122191585251,-0.0470947287977
0.905,0.122191585251,-0.0470947287977
0.9052,0.122191585251,-0.0470947287977
0.9054,0.122191585251,-0.0470947287977
0.9056,0.122191585251,-0.0470947287977
0.9058,0.122191585251,-0.0470947287977
0.906,0.122191585251,-0.0470947287977
0.9062,0.122191585251,-0.0470947287977
0.9064,0.122191585251,-0.0470947287977
0.9066,0.195036568766,-0.0470947287977
0.9068,0.195036568766,-0.0470947287977
0.907,0.195036568766,-0.0470947287977
0.9072,0.195036568766,-0.0470947287977
0.9074,0.15743915792,-0.0470947287977
0.9076,0.195036568766,-0.0470947287977
0.9078,0.195036568766,-0.0470947287977
0.908,0.195036568766,-0.0470947287977
0.9082,0.232633979613,-0.0470947287977
0.9084,0.232633979613,-0.0470947287977
0.9086,0.270231390459,-0.0470947287977
0.9088,0.270231390459,-0.0470947287977
0.909,0.232633979613,-0.0470947287977
0.9092,0.232633979613,-0.0470947287977
0.9094,0.232633979613,-0.0470947287977
0.9096,0.195036568766,-0.0470947287977
0.9098,0.232633979613,-0.0470947287977
0.91,0.232633979613,-0.0470947287977
0.9102,0.232633979613,-0.0470947287977
0.9104,0.270231390459,-0.0470947287977
0.9106,0.270231390459,-0.0470947287977
0.9108,0.270231390459,-0.0470947287977
0.911,0.232633979613,-0.0470947287977
0.9112,0.232633979613,-0.0470947287977
0.9114,0.195036568766,-0.0470947287977
0.9116,0.195036568766,-0.0470947287977
0.9118,0.15743915792,-0.0470947287977
0.912,0.195036568766,-0.0470947287977
0.9122,0.195036568766,-0.0470947287977
0.9124,0.232633979613,-0.0470947287977
0.9126,0.232633979613,-0.0470947287977
0.9128,0.232633979613,-0.0470947287977
0.913,0.195036568766,-0.0470947287977
0.9132,0.195036568766,-0.0470947287977
0.9134,0.15743915792,-0.0470947287977
0.9136,0.195036568766,-0.0470947287977
0.9138,0.15743915792,-0.0470947287977
0.914,0.195036568766,-0.0470947287977
0.9142,0.195036568766,-0.0470947287977
0.9144,0.195036568766,-0.0470947287977
0.9146,0.195036568766,-0.0470947287977
0.9148,0.15743915792,-0.0470947287977
0.915,0.122191585251,-0.0470947287977
0.9152,0.122191585251,-0.0470947287977
0.9154,0.0845941744046,-0.0470947287977
0.9156,0.0845941744046,-0.0470947287977
0.9158,0.0845941744046,-0.0470947287977
0.916,0.0845941744046,-0.0470947287977
0.9162,0.122191585251,-0.0470947287977
0.9164,0.0845941744046,-0.0470947287977
0.9166,0.0469967635581,-0.0470947287977
0.9168,0.00939935271163,-0.0470947287977
0.917,-0.0281980581349,-0.0470947287977
0.9172,0.00939935271163,-0.0470947287977
0.9174,-0.0281980581349,-0.0470947287977
0.9176,-0.0281980581349,-0.0470947287977
0.9178,0.00939935271163,-0.0470947287977
0.918,-0.0281980581349,-0.0470947287977
0.9182,-0.0281980581349,-0.0470947287977
0.9184,-0.0281980581349,-0.0470947287977
0.9186,-0.0657954689814,-0.0470947287977
0.9188,-0.0657954689814,-0.0470947287977
0.919,-0.103392879828,-0.0470947287977
0.9192,-0.103392879828,-0.0470947287977
0.9194,-0.103392879828,-0.0470947287977
0.9196,-0.103392879828,-0.0470947287977
0.9198,-0.0657954689814,-0.0470947287977
0.92,-0.103392879828,-0.0470947287977
0.9202,-0.103392879828,-0.0470947287977
0.9204,-0.178587701521,-0.0470947287977
0.9206,-0.178587701521,-0.0470947287977
0.9208,-0.216185112367,-0.0470947287977
0.921,-0.178587701521,-0.0470947287977
0.9212,-0.178587701521,-0.0470947287977
0.9214,-0.178587701521,-0.0470947287977
0.9216,-0.178587701521,-0.0470947287977
0.9218,-0.178587701521,-0.0470947287977
0.922,-0.178587701521,-0.0470947287977
0.9222,-0.216185112367,-0.0470947287977
0.9224,-0.216185112367,-0.0470947287977
0.9226,-0.253782523214,-0.0470947287977
0.9228,-0.29137993406,-0.0470947287977
0.923,-0.29137993406,-0.0470947287977
0.9232,-0.253782523214,-0.0470947287977
0.9234,-0.216185112367,-0.0470947287977
0.9236,-0.216185112367,-0.0470947287977
0.9238,-0.216185112367,-0.0470947287977
0.924,-0.216185112367,-0.0470947287977
0.9242,-0.253782523214,-0.0470947287977
0.9244,-0.29137993406,-0.0470947287977
0.9246,-0.29137993406,-0.0470947287977
0.9248,-0.29137993406,-0.0470947287977
0.925,-0.29137993406,-0.0470947287977
0.9252,-0.216185112367,-0.0470947287977
0.9254,-0.216185112367,-0.0470947287977
0.9256,-0.216185112367,-0.0470947287977
0.9258,-0.253782523214,-0.0470947287977
0.926,-0.29137993406,-0.0470947287977
0.9262,-0.29137993406,-0.0470947287977
0.9264,-0.29137993406,-0.0470947287977
0.9266,-0.29137993406,-0.0470947287977
0.9268,-0.216185112367,-0.0470947287977
0.927,-0.216185112367,-0.0470947287977
0.9272,-0.178587701521,-0.0470947287977
0.9274,-0.178587701521,-0.0470947287977
0.9276,-0.216185112367,-0.0470947287977
0.9278,-0.216185112367,-0.0470947287977
0.928,-0.216185112367,-0.0470947287977
0.9282,-0.216185112367,-0.0470947287977
0.9284,-0.178587701521,-0.0470947287977
0.9286,-0.178587701521,-0.0470947287977
0.9288,-0.178587701521,-0.0470947287977
0.929,-0.178587701521,-0.0470947287977
0.9292,-0.140990290674,-0.0470947287977
0.9294,-0.140990290674,-0.0470947287977
0.9296,-0.140990290674,-0.0470947287977
0.9298,-0.140990290674,-0.0470947287977
0.93,-0.178587701521,-0.0470947287977
0.9302,-0.178587701521,-0.0470947287977
0.9304,-0.103392879828,-0.0470947287977
0.9306,-0.103392879828,-0.0470947287977
0.9308,-0.0657954689814,-0.0470947287977
0.931,-0.0281980581349,-0.0470947287977
0.9312,-0.0281980581349,-0.0470947287977
0.9314,-0.0281980581349,-0.0470947287977
0.9316,0.00939935271163,-0.0470947287977
0.9318,-0.0281980581349,-0.0470947287977
0.932,-0.0281980581349,-0.0470947287977
0.9322,-0.0281980581349,-0.0470947287977
0.9324,0.00939935271163,-0.0470947287977
0.9326,0.0469967635581,-0.0470947287977
0.9328,0.0469967635581,-0.0470947287977
0.933,0.0845941744046,-0.0470947287977
0.9332,0.0845941744046,-0.0470947287977
0.9334,0.0845941744046,-0.0470947287977
0.9336,0.0469967635581,-0.0470947287977
0.9338,0.0845941744046,-0.0470947287977
0.934,0.0469967635581,-0.0470947287977
0.9342,0.0845941744046,-0.0470947287977
0.9344,0.0845941744046,-0.0470947287977
0.9346,0.122191585251,-0.0470947287977
0.9348,0.15743915792,-0.0470947287977
0.935,0.122191585251,-0.0470947287977
0.9352,0.15743915792,-0.0470947287977
0.9354,0.122191585251,-0.0470947287977
0.9356,0.122191585251,-0.0470947287977
0.9358,0.122191585251,-0.0470947287977
0.936,0.15743915792,-0.0470947287977
0.9362,0.195036568766,-0.0470947287977
0.9364,0.232633979613,-0.0470947287977
0.9366,0.232633979613,-0.0470947287977
0.9368,0.232633979613,-0.0470947287977
0.937,0.232633979613,-0.0470947287977
0.9372,0.232633979613,-0.0470947287977
0.9374,0.232633979613,-0.0470947287977
0.9376,0.232633979613,-0.0470947287977
0.9378,0.232633979613,-0.0470947287977
0.938,0.232633979613,-0.0470947287977
0.9382,0.232633979613,-0.0470947287977
0.9384,0.270231390459,-0.0470947287977
0.9386,0.270231390459,-0.0470947287977
0.9388,0.270231390459,-0.0470947287977
0.939,0.270231390459,-0.0470947287977
0.9392,0.232633979613,-0.0470947287977
0.9394,0.232633979613,-0.0470947287977
0.9396,0.232633979613,-0.0470947287977
0.9398,0.232633979613,-0.0470947287977
0.94,0.270231390459,-0.0470947287977
0.9402,0.270231390459,-0.0470947287977
0.9404,0.307828801306,-0.0470947287977
0.9406,0.307828801306,-0.0470947287977
0.9408,0.270231390459,-0.0470947287977
0.941,0.232633979613,-0.0470947287977
0.9412,0.232633979613,-0.0470947287977
0.9414,0.232633979613,-0.0470947287977
0.9416,0.270231390459,-0.0470947287977
0.9418,0.270231390459,-0.0470947287977
0.942,0.270231390459,-0.0470947287977
0.9422,0.270231390459,-0.0470947287977
0.9424,0.270231390459,-0.0470947287977
0.9426,0.270231390459,-0.0470947287977
0.9428,0.232633979613,-0.0470947287977
0.943,0.195036568766,-0.0470947287977
0.9432,0.195036568766,-0.0470947287977
0.9434,0.195036568766,-0.0470947287977
0.9436,0.195036568766,-0.0470947287977
0.9438,0.195036568766,-0.0470947287977
0.944,0.195036568766,-0.0470947287977
0.9442,0.195036568766,-0.0470947287977
0.9444,0.195036568766,-0.0470947287977
0.9446,0.15743915792,-0.0470947287977
0.9448,0.122191585251,-0.0470947287977
0.945,0.0845941744046,-0.0470947287977
0.9452,0.0845941744046,-0.0470947287977
0.9454,0.0845941744046,-0.0470947287977
0.9456,0.0845941744046,-0.0470947287977
0.9458,0.122191585251,-0.0470947287977
0.946,0.0845941744046,-0.0470947287977
0.9462,0.0845941744046,-0.0470947287977
0.9464,0.0845941744046,-0.0470947287977
0.9466,0.0469967635581,-0.0470947287977
0.9468,0.00939935271163,-0.0470947287977
0.947,-0.0281980581349,-0.0470947287977
0.9472,-0.0281980581349,-0.0470947287977
0.9474,-0.0281980581349,-0.0470947287977
0.9476,0.00939935271163,-0.0470947287977
0.9478,0.00939935271163,-0.0470947287977
0.948,-0.0281980581349,-0.0470947287977
0.9482,-0.0281980581349,-0.0470947287977
0.9484,-0.0281980581349,-0.0470947287977
0.9486,-0.0657954689814,-0.0470947287977
0.9488,-0.103392879828,-0.0470947287977
0.949,-0.103392879828,-0.0470947287977
0.9492,-0.103392879828,-0.0470947287977
0.9494,-0.103392879828,-0.0470947287977
0.9496,-0.103392879828,-0.0470947287977
0.9498,-0.103392879828,-0.0470947287977
0.95,-0.140990290674,-0.0470947287977
0.9502,-0.178587701521,-0.0470947287977
0.9504,-0.178587701521,-0.0470947287977
0.9506,-0.216185112367,-0.0470947287977
0.9508,-0.216185112367,-0.0470947287977
0.951,-0.216185112367,-0.0470947287977
0.9512,-0.216185112367,-0.0470947287977
0.9514,-0.178587701521,-0.0470947287977
0.9516,-0.178587701521,-0.0470947287977
0.9518,-0.178587701521,-0.0470947287977
0.952,-0.216185112367,-0.0470947287977
0.9522,-0.253782523214,-0.0470947287977
0.9524,-0.253782523214,-0.0470947287977
0.9526,-0.29137993406,-0.0470947287977
0.9528,-0.253782523214,-0.0470947287977
0.953,-0.29137993406,-0.0470947287977
0.9532,-0.253782523214,-0.0470947287977
0.9534,-0.216185112367,-0.0470947287977
0.9536,-0.216185112367,-0.0470947287977
0.9538,-0.253782523214,-0.0470947287977
0.954,-0.29137993406,-0.0470947287977
0.9542,-0.253782523214,-0.0470947287977
0.9544,-0.29137993406,-0.0470947287977
0.9546,-0.29137993406,-0.0470947287977
0.9548,-0.29137993406,-0.0470947287977
0.955,-0.216185112367,-0.0470947287977
0.9552,-0.253782523214,-0.0470947287977
0.9554,-0.216185112367,-0.0470947287977
0.9556,-0.253782523214,-0.0470947287977
0.9558,-0.253782523214,-0.0470947287977
0.956,-0.29137993406,-0.0470947287977
0.9562,-0.328977344907,-0.0470947287977
0.9564,-0.29137993406,-0.0470947287977
0.9566,-0.29137993406,-0.0470947287977
0.9568,-0.253782523214,-0.0470947287977
0.957,-0.216185112367,-0.0470947287977
0.9572,-0.216185112367,-0.0470947287977
0.9574,-0.216185112367,-0.0470947287977
0.9576,-0.216185112367,-0.0470947287977
0.9578,-0.253782523214,-0.0470947287977
0.958,-0.29137993406,-0.0470947287977
0.9582,-0.253782523214,-0.0470947287977
0.9584,-0.253782523214,-0.0470947287977
0.9586,-0.216185112367,-0.0470947287977
0.9588,-0.178587701521,-0.0470947287977
0.959,-0.178587701521,-0.0470947287977
0.9592,-0.140990290674,-0.0470947287977
0.9594,-0.140990290674,-0.0470947287977
0.9596,-0.103392879828,-0.0470947287977
0.9598,-0.103392879828,-0.0470947287977
0.96,-0.178587701521,-0.0470947287977
0.9602,-0.103392879828,-0.0470947287977
0.9604,-0.103392879828,-0.0470947287977
0.9606,-0.0657954689814,-0.0470947287977
0.9608,-0.0657954689814,-0.0470947287977
0.961,-0.0281980581349,-0.0470947287977
0.9612,-0.0281980581349,-0.0470947287977
0.9614,-0.0281980581349,-0.0470947287977
0.9616,-0.0657954689814,-0.0470947287977
0.9618,-0.0281980581349,-0.0470947287977
0.962,-0.0657954689814,-0.0470947287977
0.9622,-0.0281980581349,-0.0470947287977
0.9624,-0.0281980581349,-0.0470947287977
0.9626,0.00939935271163,-0.0470947287977
0.9628,0.0469967635581,-0.0470947287977
0.963,0.0469967635581,-0.0470947287977
0.9632,0.0469967635581,-0.0470947287977
0.9634,0.0469967635581,-0.0470947287977
0.9636,0.00939935271163,-0.0470947287977
0.9638,0.0469967635581,-0.0470947287977
0.964,0.0845941744046,-0.0470947287977
0.9642,0.0845941744046,-0.0470947287977
0.9644,0.122191585251,-0.0470947287977
0.9646,0.15743915792,-0.0470947287977
0.9648,0.195036568766,-0.0470947287977
0.965,0.195036568766,-0.0470947287977
0.9652,0.15743915792,-0.0470947287977
0.9654,0.15743915792,-0.0470947287977
0.9656,0.195036568766,-0.0470947287977
0.9658,0.195036568766,-0.0470947287977
0.966,0.195036568766,-0.0470947287977
0.9662,0.232633979613,-0.0470947287977
0.9664,0.232633979613,-0.0470947287977
0.9666,0.232633979613,-0.0470947287977
0.9668,0.270231390459,-0.0470947287977
0.967,0.270231390459,-0.0470947287977
0.9672,0.232633979613,-0.0470947287977
0.9674,0.232633979613,-0.0470947287977
0.9676,0.195036568766,-0.0470947287977
0.9678,0.232633979613,-0.0470947287977
0.968,0.232633979613,-0.0470947287977
0.9682,0.270231390459,-0.0470947287977
0.9684,0.270231390459,-0.0470947287977
0.9686,0.270231390459,-0.0470947287977
0.9688,0.270231390459,-0.0470947287977
0.969,0.270231390459,-0.0470947287977
0.9692,0.232633979613,-0.0470947287977
0.9694,0.270231390459,-0.0470947287977
0.9696,0.270231390459,-0.0470947287977
0.9698,0.270231390459,-0.0470947287977
0.97,0.270231390459,-0.0470947287977
0.9702,0.307828801306,-0.0470947287977
0.9704,0.307828801306,-0.0470947287977
0.9706,0.307828801306,-0.0470947287977
0.9708,0.307828801306,-0.0470947287977
0.971,0.307828801306,-0.0470947287977
0.9712,0.270231390459,-0.0470947287977
0.9714,0.232633979613,-0.0470947287977
0.9716,0.270231390459,-0.0470947287977
0.9718,0.270231390459,-0.0470947287977
0.972,0.270231390459,-0.0470947287977
0.9722,0.270231390459,-0.0470947287977
0.9724,0.270231390459,-0.0470947287977
0.9726,0.232633979613,-0.0470947287977
0.9728,0.232633979613,-0.0470947287977
0.973,0.195036568766,-0.0470947287977
0.9732,0.195036568766,-0.0470947287977
0.9734,0.195036568766,-0.0470947287977
0.9736,0.195036568766,-0.0470947287977
0.9738,0.232633979613,-0.0470947287977
0.974,0.232633979613,-0.0470947287977
0.9742,0.195036568766,-0.0470947287977
0.9744,0.195036568766,-0.0470947287977
0.9746,0.122191585251,-0.0470947287977
0.9748,0.0845941744046,-0.0470947287977
0.975,0.122191585251,-0.0470947287977
0.9752,0.0845941744046,-0.0470947287977
0.9754,0.122191585251,-0.0470947287977
0.9756,0.122191585251,-0.0470947287977
0.9758,0.122191585251,-0.0470947287977
0.976,0.122191585251,-0.0470947287977
0.9762,0.0845941744046,-0.0470947287977
0.9764,0.0469967635581,-0.0470947287977
0.9766,0.00939935271163,-0.0470947287977
0.9768,0.00939935271163,-0.0470947287977
0.977,0.00939935271163,-0.0470947287977
0.9772,0.00939935271163,-0.0470947287977
0.9774,0.00939935271163,-0.0470947287977
0.9776,0.00939935271163,-0.0470947287977
0.9778,0.00939935271163,-0.0470947287977
0.978,0.00939935271163,-0.0470947287977
0.9782,-0.0281980581349,-0.0470947287977
0.9784,-0.0281980581349,-0.0470947287977
0.9786,-0.0657954689814,-0.0470947287977
0.9788,-0.103392879828,-0.0470947287977
0.979,-0.0657954689814,-0.0470947287977
0.9792,-0.103392879828,-0.0470947287977
0.9794,-0.0657954689814,-0.0470947287977
0.9796,-0.103392879828,-0.0470947287977
0.9798,-0.0657954689814,-0.0470947287977
0.98,-0.103392879828,-0.0470947287977
0.9802,-0.178587701521,-0.0470947287977
0.9804,-0.178587701521,-0.0470947287977
0.9806,-0.178587701521,-0.0470947287977
0.9808,-0.216185112367,-0.0470947287977
0.981,-0.178587701521,-0.0470947287977
0.9812,-0.178587701521,-0.0470947287977
0.9814,-0.178587701521,-0.0470947287977
0.9816,-0.178587701521,-0.0470947287977
0.9818,-0.216185112367,-0.0470947287977
0.982,-0.216185112367,-0.0470947287977
0.9822,-0.216185112367,-0.0470947287977
0.9824,-0.253782523214,-0.0470947287977
0.9826,-0.253782523214,-0.0470947287977
0.9828,-0.253782523214,-0.0470947287977
0.983,-0.216185112367,-0.0470947287977
0.9832,-0.216185112367,-0.0470947287977
0.9834,-0.216185112367,-0.0470947287977
0.9836,-0.216185112367,-0.0470947287977
0.9838,-0.29137993406,-0.0470947287977
0.984,-0.328977344907,-0.0470947287977
0.9842,-0.328977344907,-0.0470947287977
0.9844,-0.29137993406,-0.0470947287977
0.9846,-0.328977344907,-0.0470947287977
0.9848,-0.29137993406,-0.0470947287977
0.985,-0.29137993406,-0.0470947287977
0.9852,-0.253782523214,-0.0470947287977
0.9854,-0.253782523214,-0.0470947287977
0.9856,-0.29137993406,-0.0470947287977
0.9858,-0.29137993406,-0.0470947287977
0.986,-0.328977344907,-0.0470947287977
0.9862,-0.328977344907,-0.0470947287977
0.9864,-0.29137993406,-0.0470947287977
0.9866,-0.29137993406,-0.0470947287977
0.9868,-0.216185112367,-0.0470947287977
0.987,-0.178587701521,-0.0470947287977
0.9872,-0.216185112367,-0.0470947287977
0.9874,-0.216185112367,-0.0470947287977
0.9876,-0.216185112367,-0.0470947287977
0.9878,-0.216185112367,-0.0470947287977
0.988,-0.216185112367,-0.0470947287977
0.9882,-0.216185112367,-0.0470947287977
0.9884,-0.178587701521,-0.0470947287977
0.9886,-0.178587701521,-0.0470947287977
0.9888,-0.178587701521,-0.0470947287977
0.989,-0.140990290674,-0.0470947287977
0.9892,-0.178587701521,-0.0470947287977
0.9894,-0.178587701521,-0.0470947287977
0.9896,-0.178587701521,-0.0470947287977
0.9898,-0.178587701521,-0.0470947287977
0.99,-0.178587701521,-0.0470947287977
0.9902,-0.178587701521,-0.0470947287977
0.9904,-0.103392879828,-0.0470947287977
0.9906,-0.103392879828,-0.0470947287977
0.9908,-0.0657954689814,-0.0470947287977
0.991,-0.0657954689814,-0.0470947287977
0.9912,-0.0281980581349,-0.0470947287977
0.9914,-0.0657954689814,-0.0470947287977
0.9916,-0.0657954689814,-0.0470947287977
0.9918,-0.0657954689814,-0.0470947287977
0.992,-0.0281980581349,-0.0470947287977
0.9922,-0.0281980581349,-0.0470947287977
0.9924,0.00939935271163,-0.0470947287977
0.9926,0.00939935271163,-0.0470947287977
0.9928,0.0469967635581,-0.0470947287977
0.993,0.00939935271163,-0.0470947287977
0.9932,0.00939935271163,-0.0470947287977
0.9934,0.00939935271163,-0.0470947287977
0.9936,0.00939935271163,-0.0470947287977
0.9938,0.0469967635581,-0.0470947287977
0.994,0.0845941744046,-0.0470947287977
0.9942,0.0845941744046,-0.0470947287977
0.9944,0.122191585251,-0.0470947287977
0.9946,0.122191585251,-0.0470947287977
0.9948,0.15743915792,-0.0470947287977
0.995,0.122191585251,-0.0470947287977
0.9952,0.122191585251,-0.0470947287977
0.9954,0.122191585251,-0.0470947287977
0.9956,0.122191585251,-0.0470947287977
0.9958,0.122191585251,-0.0470947287977
0.996,0.15743915792,-0.0470947287977
0.9962,0.232633979613,-0.0470947287977
0.9964,0.232633979613,-0.0470947287977
0.9966,0.232633979613,-0.0470947287977
0.9968,0.232633979613,-0.0470947287977
0.997,0.232633979613,-0.0470947287977
0.9972,0.195036568766,-0.0470947287977
0.9974,0.195036568766,-0.0470947287977
0.9976,0.232633979613,-0.0470947287977
0.9978,0.232633979613,-0.0470947287977
0.998,0.232633979613,-0.0470947287977
0.9982,0.270231390459,-0.0470947287977
0.9984,0.270231390459,-0.0470947287977
0.9986,0.270231390459,-0.0470947287977
0.9988,0.232633979613,-0.0470947287977
0.999,0.232633979613,-0.0470947287977
0.9992,0.232633979613,-0.0470947287977
0.9994,0.232633979613,-0.0470947287977
0.9996,0.232633979613,-0.0470947287977
0.9998,0.270231390459,-0.0470947287977
1,0.270231390459,-0.0470947287977
